# Anatase    CELL:    3.78515   3.78515   9.52013   90.0000   90.0000   90.0000   SPGR: I 41/a m d             TEMP:      0.00
# 2Theta	Yobs	Ycal	Yobs_Ycal
     19.9750	   25.00	   30.85	 -360.16
     20.0000	   36.00	   30.85	 -360.16
     20.0250	   35.00	   30.85	 -356.01
     20.0500	   42.00	   30.85	 -349.01
     20.0750	   34.00	   30.85	 -357.01
     20.1000	   28.00	   30.85	 -363.01
     20.1250	   29.00	   30.85	 -362.01
     20.1500	   32.00	   30.85	 -359.01
     20.1750	   34.00	   30.85	 -357.01
     20.2000	   30.00	   30.85	 -361.01
     20.2250	   35.00	   30.85	 -356.01
     20.2500	   28.00	   30.85	 -363.01
     20.2750	   31.00	   30.85	 -360.01
     20.3000	   34.00	   30.85	 -357.01
     20.3250	   34.00	   30.85	 -357.01
     20.3500	   32.00	   30.85	 -359.01
     20.3750	   35.00	   30.85	 -356.01
     20.4000	   38.00	   30.85	 -353.01
     20.4250	   29.00	   30.85	 -362.01
     20.4500	   30.00	   30.85	 -361.01
     20.4750	   28.00	   30.85	 -363.01
     20.5000	   49.00	   30.85	 -342.01
     20.5250	   32.00	   30.85	 -359.01
     20.5500	   33.00	   30.85	 -358.01
     20.5750	   34.00	   30.85	 -357.01
     20.6000	   39.00	   30.85	 -352.01
     20.6250	   32.00	   30.85	 -359.01
     20.6500	   39.00	   30.85	 -352.01
     20.6750	   37.00	   30.85	 -354.01
     20.7000	   33.00	   30.85	 -358.01
     20.7250	   35.00	   30.85	 -356.01
     20.7500	   35.00	   30.85	 -356.01
     20.7750	   39.00	   30.85	 -352.01
     20.8000	   46.00	   30.85	 -345.01
     20.8250	   39.00	   30.85	 -352.01
     20.8500	   35.00	   30.85	 -356.01
     20.8750	   31.00	   30.85	 -360.01
     20.9000	   25.00	   30.85	 -366.01
     20.9250	   23.00	   30.85	 -368.01
     20.9500	   29.00	   30.85	 -362.01
     20.9750	   34.00	   30.85	 -357.01
     21.0000	   32.00	   30.85	 -359.01
     21.0250	   29.00	   30.85	 -362.01
     21.0500	   33.00	   30.85	 -358.01
     21.0750	   30.00	   30.85	 -361.01
     21.1000	   28.00	   30.85	 -363.01
     21.1250	   32.00	   30.85	 -359.01
     21.1500	   29.00	   30.85	 -362.01
     21.1750	   40.00	   30.85	 -351.01
     21.2000	   42.00	   30.85	 -349.01
     21.2250	   26.00	   30.85	 -365.01
     21.2500	   32.00	   30.85	 -359.01
     21.2750	   25.00	   30.85	 -366.01
     21.3000	   43.00	   30.85	 -348.01
     21.3250	   39.00	   30.85	 -352.01
     21.3500	   23.00	   30.85	 -368.01
     21.3750	   29.00	   30.85	 -362.01
     21.4000	   27.00	   30.85	 -364.01
     21.4250	   33.00	   30.85	 -358.01
     21.4500	   23.00	   30.85	 -368.01
     21.4750	   33.00	   30.85	 -358.01
     21.5000	   34.00	   30.85	 -357.01
     21.5250	   25.00	   30.85	 -366.01
     21.5500	   30.00	   30.85	 -361.01
     21.5750	   30.00	   30.85	 -361.01
     21.6000	   34.00	   30.85	 -357.01
     21.6250	   36.00	   30.85	 -355.01
     21.6500	   27.00	   30.85	 -364.01
     21.6750	   41.00	   30.85	 -350.01
     21.7000	   22.00	   30.85	 -369.01
     21.7250	   44.00	   30.85	 -347.01
     21.7500	   33.00	   30.85	 -358.01
     21.7750	   25.00	   30.85	 -366.01
     21.8000	   39.00	   30.85	 -352.01
     21.8250	   37.00	   30.85	 -354.01
     21.8500	   27.00	   30.85	 -364.01
     21.8750	   30.00	   30.85	 -361.01
     21.9000	   16.00	   30.84	 -375.00
     21.9250	   20.00	   30.84	 -371.00
     21.9500	   37.00	   30.83	 -353.99
     21.9750	   24.00	   30.82	 -366.98
     22.0000	   32.00	   30.82	 -358.98
     22.0250	   38.00	   30.81	 -352.97
     22.0500	   38.00	   30.80	 -352.96
     22.0750	   36.00	   30.80	 -354.96
     22.1000	   27.00	   30.79	 -363.95
     22.1250	   34.00	   30.78	 -356.95
     22.1500	   30.00	   30.78	 -360.94
     22.1750	   21.00	   30.77	 -369.93
     22.2000	   32.00	   30.77	 -358.93
     22.2250	   38.00	   30.76	 -352.92
     22.2500	   20.00	   30.75	 -370.91
     22.2750	   29.00	   30.75	 -361.91
     22.3000	   37.00	   30.74	 -353.90
     22.3250	   34.00	   30.73	 -356.89
     22.3500	   26.00	   30.73	 -364.89
     22.3750	   32.00	   30.72	 -358.88
     22.4000	   30.00	   30.71	 -360.88
     22.4250	   18.00	   30.71	 -372.87
     22.4500	   28.00	   30.70	 -362.86
     22.4750	   31.00	   30.70	 -359.86
     22.5000	   33.00	   30.69	 -357.85
     22.5250	   45.00	   30.68	 -345.84
     22.5500	   31.00	   30.68	 -359.84
     22.5750	   38.00	   30.67	 -352.83
     22.6000	   31.00	   30.66	 -359.82
     22.6250	   35.00	   30.66	 -355.82
     22.6500	   43.00	   30.65	 -347.81
     22.6750	   50.00	   30.65	 -340.81
     22.7000	   30.00	   30.64	 -360.80
     22.7250	   45.00	   30.63	 -345.79
     22.7500	   44.00	   30.63	 -346.79
     22.7750	   45.00	   30.62	 -345.78
     22.8000	   41.00	   30.61	 -349.77
     22.8250	   32.00	   33.34	 -361.50
     22.8500	   34.00	   33.40	 -359.56
     22.8750	   33.00	   33.45	 -360.61
     22.9000	   33.00	   34.88	 -362.04
     22.9250	   29.00	   34.96	 -366.12
     22.9500	   44.00	   35.05	 -351.21
     22.9750	   40.00	   35.14	 -355.30
     23.0000	   34.00	   35.24	 -361.40
     23.0250	   28.00	   35.34	 -367.50
     23.0500	   37.00	   35.44	 -358.60
     23.0750	   38.00	   35.54	 -357.70
     23.1000	   29.00	   35.65	 -366.81
     23.1250	   31.00	   35.77	 -364.93
     23.1500	   34.00	   35.88	 -362.04
     23.1750	   35.00	   36.01	 -361.17
     23.2000	   29.00	   36.13	 -367.29
     23.2250	   31.00	   36.27	 -365.43
     23.2500	   37.00	   36.40	 -359.56
     23.2750	   28.00	   36.54	 -368.71
     23.3000	   34.00	   36.69	 -362.85
     23.3250	   37.00	   36.85	 -360.01
     23.3500	   25.00	   37.01	 -372.17
     23.3750	   30.00	   37.17	 -367.33
     23.4000	   27.00	   37.35	 -370.51
     23.4250	   24.00	   37.53	 -373.69
     23.4500	   24.00	   37.72	 -373.88
     23.4750	   31.00	   37.92	 -367.08
     23.5000	   52.00	   38.12	 -346.28
     23.5250	   38.00	   38.34	 -360.50
     23.5500	   42.00	   38.56	 -356.72
     23.5750	   42.00	   38.80	 -356.96
     23.6000	   34.00	   39.04	 -365.20
     23.6250	   37.00	   39.30	 -362.46
     23.6500	   47.00	   39.57	 -352.73
     23.6750	   36.00	   39.85	 -364.01
     23.7000	   34.00	   40.15	 -366.31
     23.7250	   32.00	   40.46	 -368.62
     23.7500	   37.00	   40.79	 -363.95
     23.7750	   41.00	   41.13	 -360.29
     23.8000	   52.00	   41.49	 -349.65
     23.8250	   28.00	   41.87	 -374.03
     23.8500	   42.00	   42.27	 -360.43
     23.8750	   54.00	   42.69	 -348.85
     23.9000	   33.00	   43.14	 -370.30
     23.9250	   47.00	   43.61	 -356.77
     23.9500	   54.00	   44.11	 -350.27
     23.9750	   53.00	   44.64	 -351.80
     24.0000	   52.00	   45.20	 -353.36
     24.0250	   47.00	   45.79	 -358.95
     24.0500	   54.00	   46.42	 -352.58
     24.0750	   54.00	   47.09	 -353.25
     24.1000	   53.00	   47.81	 -354.97
     24.1250	   71.00	   48.57	 -337.73
     24.1500	   55.00	   49.38	 -354.54
     24.1750	   65.00	   50.25	 -345.41
     24.2000	   72.00	   51.17	 -339.34
     24.2250	   66.00	   52.17	 -346.33
     24.2500	   71.00	   53.24	 -342.40
     24.2750	   67.00	   54.39	 -347.55
     24.3000	   67.00	   55.62	 -348.79
     24.3250	   58.00	   56.96	 -359.12
     24.3500	   57.00	   58.40	 -361.56
     24.3750	   55.00	   59.97	 -365.13
     24.4000	   74.00	   61.66	 -347.83
     24.4250	   48.00	   63.51	 -375.67
     24.4500	   61.00	   65.52	 -364.69
     24.4750	   56.00	   67.73	 -371.89
     24.5000	   76.00	   70.14	 -354.30
     24.5250	   88.00	   72.79	 -344.95
     24.5500	   75.00	   75.70	 -360.87
     24.5750	   79.00	   78.93	 -360.09
     24.6000	   88.00	   82.51	 -354.67
     24.6250	   91.00	   86.49	 -355.65
     24.6500	   74.00	   90.94	 -377.10
     24.6750	   94.00	   95.93	 -362.09
     24.7000	   93.00	  101.56	 -368.72
     24.7250	   90.00	  107.95	 -378.11
     24.7500	  124.00	  115.25	 -351.41
     24.7750	  118.00	  123.68	 -365.84
     24.8000	  144.00	  133.53	 -349.69
     24.8250	  128.00	  145.18	 -377.34
     24.8500	  148.00	  159.19	 -371.36
     24.8750	  168.00	  176.31	 -368.47
     24.9000	  186.00	  197.54	 -371.70
     24.9250	  212.00	  224.18	 -372.34
     24.9500	  221.00	  257.86	 -397.02
     24.9750	  290.00	  300.52	 -370.68
     25.0000	  334.00	  354.33	 -380.49
     25.0250	  350.00	  421.54	 -431.70
     25.0500	  476.00	  504.26	 -388.42
     25.0750	  577.00	  604.09	 -387.25
     25.1000	  706.00	  721.54	 -375.70
     25.1250	  809.00	  855.24	 -406.40
     25.1500	  953.00	 1000.64	 -407.80
     25.1750	 1097.00	 1148.43	 -411.59
     25.2000	 1149.00	 1283.55	 -494.71
     25.2250	 1326.00	 1386.83	 -420.99
     25.2500	 1398.00	 1440.64	 -402.80
     25.2750	 1412.00	 1435.77	 -383.94
     25.3000	 1387.00	 1374.56	 -347.72
     25.3250	 1208.00	 1268.69	 -420.85
     25.3500	 1107.00	 1134.74	 -387.90
     25.3750	 1020.00	  989.53	 -329.69
     25.4000	  776.00	  846.69	 -430.85
     25.4250	  691.00	  715.08	 -384.24
     25.4500	  552.00	  599.26	 -407.42
     25.4750	  489.00	  500.71	 -371.87
     25.5000	  371.00	  418.97	 -408.13
     25.5250	  334.00	  352.48	 -378.64
     25.5500	  271.00	  299.19	 -388.35
     25.5750	  253.00	  256.87	 -364.03
     25.6000	  222.00	  223.40	 -361.56
     25.6250	  189.00	  196.88	 -368.04
     25.6500	  168.00	  175.72	 -367.88
     25.6750	  134.00	  158.63	 -384.79
     25.7000	  119.00	  144.64	 -385.80
     25.7250	  128.00	  132.99	 -365.15
     25.7500	  107.00	  123.16	 -376.32
     25.7750	  111.00	  114.73	 -363.89
     25.8000	   86.00	  107.44	 -381.60
     25.8250	   88.00	  101.06	 -373.22
     25.8500	   97.00	   95.44	 -358.60
     25.8750	   95.00	   90.45	 -355.61
     25.9000	   79.00	   86.01	 -367.17
     25.9250	   82.00	   82.03	 -360.19
     25.9500	   67.00	   78.45	 -371.61
     25.9750	   59.00	   75.22	 -376.38
     26.0000	   83.00	   72.30	 -349.46
     26.0250	   64.00	   69.65	 -365.81
     26.0500	   60.00	   67.23	 -367.39
     26.0750	   65.00	   65.03	 -360.19
     26.1000	   62.00	   63.01	 -361.17
     26.1250	   54.00	   61.15	 -367.32
     26.1500	   69.00	   59.45	 -350.61
     26.1750	   74.00	   57.88	 -344.04
     26.2000	   47.00	   56.43	 -369.59
     26.2250	   50.00	   55.08	 -365.24
     26.2500	   50.00	   53.84	 -364.00
     26.2750	   51.00	   52.68	 -361.84
     26.3000	   58.00	   51.60	 -353.76
     26.3250	   57.00	   50.59	 -353.76
     26.3500	   59.00	   49.66	 -350.82
     26.3750	   45.00	   48.78	 -363.94
     26.4000	   43.00	   47.96	 -365.12
     26.4250	   59.00	   47.18	 -348.35
     26.4500	   44.00	   46.46	 -362.62
     26.4750	   38.00	   45.78	 -367.94
     26.5000	   55.00	   45.14	 -350.30
     26.5250	   45.00	   44.53	 -359.69
     26.5500	   43.00	   43.96	 -361.12
     26.5750	   45.00	   43.42	 -358.58
     26.6000	   51.00	   42.91	 -352.07
     26.6250	   49.00	   42.43	 -353.59
     26.6500	   46.00	   41.97	 -356.13
     26.6750	   52.00	   41.54	 -349.70
     26.7000	   45.00	   41.12	 -356.28
     26.7250	   49.00	   40.73	 -351.89
     26.7500	   45.00	   40.36	 -355.52
     26.7750	   43.00	   40.00	 -357.16
     26.8000	   39.00	   39.66	 -360.82
     26.8250	   33.00	   39.34	 -366.50
     26.8500	   25.00	   39.03	 -374.19
     26.8750	   30.00	   38.74	 -368.90
     26.9000	   40.00	   38.46	 -358.62
     26.9250	   37.00	   38.19	 -361.35
     26.9500	   36.00	   37.93	 -362.09
     26.9750	   57.00	   37.68	 -340.84
     27.0000	   36.00	   37.44	 -361.61
     27.0250	   32.00	   37.22	 -365.38
     27.0500	   45.00	   37.00	 -352.16
     27.0750	   38.00	   36.79	 -358.95
     27.1000	   29.00	   36.59	 -367.75
     27.1250	   44.00	   36.39	 -352.56
     27.1500	   51.00	   36.21	 -345.37
     27.1750	   39.00	   36.03	 -357.19
     27.2000	   43.00	   35.86	 -353.02
     27.2250	   43.00	   35.69	 -352.85
     27.2500	   37.00	   35.53	 -358.69
     27.2750	   38.00	   35.37	 -357.54
     27.3000	   55.00	   35.23	 -340.39
     27.3250	   50.00	   35.08	 -345.24
     27.3500	   28.00	   34.94	 -367.10
     27.3750	   50.00	   34.81	 -344.97
     27.4000	   60.00	   34.68	 -334.84
     27.4250	   49.00	   34.55	 -345.71
     27.4500	   56.00	   34.43	 -338.59
     27.4750	   34.00	   34.31	 -360.47
     27.5000	   38.00	   34.20	 -356.36
     27.5250	   41.00	   34.09	 -353.25
     27.5500	   31.00	   33.98	 -363.14
     27.5750	   37.00	   33.87	 -357.03
     27.6000	   40.00	   33.77	 -353.93
     27.6250	   38.00	   33.67	 -355.83
     27.6500	   28.00	   33.58	 -365.74
     27.6750	   42.00	   30.79	 -348.95
     27.7000	   37.00	   30.75	 -353.91
     27.7250	   37.00	   29.36	 -352.52
     27.7500	   27.00	   29.36	 -362.52
     27.7750	   46.00	   29.35	 -343.51
     27.8000	   32.00	   29.34	 -357.51
     27.8250	   31.00	   29.34	 -358.50
     27.8500	   31.00	   29.33	 -358.49
     27.8750	   27.00	   29.33	 -362.49
     27.9000	   33.00	   29.32	 -356.48
     27.9250	   22.00	   29.31	 -367.47
     27.9500	   26.00	   29.31	 -363.47
     27.9750	   26.00	   29.30	 -363.46
     28.0000	   38.00	   29.29	 -351.45
     28.0250	   43.00	   29.29	 -346.45
     28.0500	   36.00	   29.28	 -353.44
     28.0750	   25.00	   29.27	 -364.44
     28.1000	   33.00	   29.27	 -356.43
     28.1250	   40.00	   29.26	 -349.42
     28.1500	   28.00	   29.26	 -361.42
     28.1750	   28.00	   29.25	 -361.41
     28.2000	   33.00	   29.24	 -356.40
     28.2250	   33.00	   29.24	 -356.40
     28.2500	   35.00	   29.23	 -354.39
     28.2750	   34.00	   29.22	 -355.38
     28.3000	   31.00	   29.22	 -358.38
     28.3250	   31.00	   29.21	 -358.37
     28.3500	   30.00	   29.20	 -359.37
     28.3750	   36.00	   29.20	 -353.36
     28.4000	   32.00	   29.19	 -357.35
     28.4250	   21.00	   29.19	 -368.35
     28.4500	   29.00	   29.18	 -360.34
     28.4750	   32.00	   29.17	 -357.33
     28.5000	   33.00	   29.17	 -356.33
     28.5250	   24.00	   29.16	 -365.32
     28.5500	   31.00	   29.15	 -358.31
     28.5750	   31.00	   29.15	 -358.31
     28.6000	   41.00	   29.14	 -348.30
     28.6250	   36.00	   29.14	 -353.30
     28.6500	   27.00	   29.13	 -362.29
     28.6750	   24.00	   29.12	 -365.28
     28.7000	   23.00	   29.12	 -366.28
     28.7250	   28.00	   29.11	 -361.27
     28.7500	   33.00	   29.10	 -356.26
     28.7750	   38.00	   29.10	 -351.26
     28.8000	   34.00	   29.09	 -355.25
     28.8250	   31.00	   29.08	 -358.24
     28.8500	   33.00	   29.08	 -356.24
     28.8750	   21.00	   29.07	 -368.23
     28.9000	   26.00	   29.07	 -363.23
     28.9250	   30.00	   29.06	 -359.22
     28.9500	   35.00	   29.05	 -354.21
     28.9750	   28.00	   29.05	 -361.21
     29.0000	   34.00	   29.04	 -355.20
     29.0250	   30.00	   29.03	 -359.19
     29.0500	   35.00	   29.03	 -354.19
     29.0750	   31.00	   29.02	 -358.18
     29.1000	   35.00	   29.01	 -354.18
     29.1250	   37.00	   29.01	 -352.17
     29.1500	   29.00	   29.00	 -360.16
     29.1750	   37.00	   29.00	 -352.16
     29.2000	   25.00	   28.99	 -364.15
     29.2250	   21.00	   28.98	 -368.14
     29.2500	   39.00	   28.98	 -350.14
     29.2750	   27.00	   28.97	 -362.13
     29.3000	   26.00	   28.96	 -363.12
     29.3250	   40.00	   28.96	 -349.12
     29.3500	   26.00	   28.95	 -363.11
     29.3750	   36.00	   28.94	 -353.11
     29.4000	   21.00	   28.94	 -368.10
     29.4250	   15.00	   28.93	 -374.09
     29.4500	   31.00	   28.93	 -358.09
     29.4750	   27.00	   28.92	 -362.08
     29.5000	   20.00	   28.91	 -369.07
     29.5250	   33.00	   28.91	 -356.07
     29.5500	   26.00	   28.90	 -363.06
     29.5750	   22.00	   28.89	 -367.05
     29.6000	   24.00	   28.89	 -365.05
     29.6250	   29.00	   28.88	 -360.04
     29.6500	   24.00	   28.88	 -365.04
     29.6750	   36.00	   28.87	 -353.03
     29.7000	   33.00	   28.86	 -356.02
     29.7250	   27.00	   28.86	 -362.02
     29.7500	   22.00	   28.85	 -367.01
     29.7750	   29.00	   28.84	 -360.00
     29.8000	   30.00	   28.84	 -359.00
     29.8250	   27.00	   28.83	 -361.99
     29.8500	   30.00	   28.82	 -358.98
     29.8750	   13.00	   28.82	 -375.98
     29.9000	   26.00	   28.81	 -362.97
     29.9250	   30.00	   28.81	 -358.97
     29.9500	   31.00	   28.80	 -357.96
     29.9750	   27.00	   28.79	 -361.95
     30.0000	   28.00	   28.79	 -360.95
     30.0250	   26.00	   28.78	 -362.94
     30.0500	   23.00	   28.77	 -365.93
     30.0750	   26.00	   28.77	 -362.93
     30.1000	   31.00	   28.76	 -357.92
     30.1250	   24.00	   28.75	 -364.92
     30.1500	   40.00	   28.75	 -348.91
     30.1750	   20.00	   28.74	 -368.90
     30.2000	   26.00	   28.74	 -362.90
     30.2250	   27.00	   28.73	 -361.89
     30.2500	   37.00	   28.72	 -351.88
     30.2750	   38.00	   28.72	 -350.88
     30.3000	   17.00	   28.71	 -371.87
     30.3250	   32.00	   28.70	 -356.86
     30.3500	   14.00	   28.70	 -374.86
     30.3750	   35.00	   28.69	 -353.85
     30.4000	   27.00	   28.68	 -361.85
     30.4250	   31.00	   28.68	 -357.84
     30.4500	   37.00	   28.67	 -351.83
     30.4750	   42.00	   28.67	 -346.83
     30.5000	   23.00	   28.66	 -365.82
     30.5250	   26.00	   28.65	 -362.81
     30.5500	   23.00	   28.65	 -365.81
     30.5750	   34.00	   28.64	 -354.80
     30.6000	   35.00	   28.63	 -353.79
     30.6250	   18.00	   28.63	 -370.79
     30.6500	   24.00	   28.62	 -364.78
     30.6750	   27.00	   28.61	 -361.78
     30.7000	   42.00	   28.61	 -346.77
     30.7250	   32.00	   28.60	 -356.76
     30.7500	   30.00	   28.60	 -358.76
     30.7750	   27.00	   28.59	 -361.75
     30.8000	   19.00	   28.58	 -369.74
     30.8250	   26.00	   28.58	 -362.74
     30.8500	   26.00	   28.57	 -362.73
     30.8750	   32.00	   28.56	 -356.72
     30.9000	   32.00	   28.56	 -356.72
     30.9250	   29.00	   28.55	 -359.71
     30.9500	   35.00	   28.55	 -353.71
     30.9750	   31.00	   28.54	 -357.70
     31.0000	   25.00	   28.53	 -363.69
     31.0250	   32.00	   28.53	 -356.69
     31.0500	   28.00	   28.52	 -360.68
     31.0750	   27.00	   28.51	 -361.67
     31.1000	   22.00	   28.51	 -366.67
     31.1250	   32.00	   28.50	 -356.66
     31.1500	   33.00	   28.49	 -355.65
     31.1750	   23.00	   28.49	 -365.65
     31.2000	   26.00	   28.48	 -362.64
     31.2250	   31.00	   28.48	 -357.64
     31.2500	   22.00	   28.47	 -366.63
     31.2750	   35.00	   28.46	 -353.62
     31.3000	   36.00	   28.46	 -352.62
     31.3250	   26.00	   28.45	 -362.61
     31.3500	   28.00	   28.44	 -360.60
     31.3750	   29.00	   28.44	 -359.60
     31.4000	   38.00	   28.43	 -350.59
     31.4250	   25.00	   28.42	 -363.59
     31.4500	   27.00	   28.42	 -361.58
     31.4750	   40.00	   28.41	 -348.57
     31.5000	   23.00	   28.41	 -365.57
     31.5250	   30.00	   28.39	 -358.55
     31.5500	   24.00	   28.38	 -364.54
     31.5750	   32.00	   28.36	 -356.52
     31.6000	   29.00	   28.35	 -359.51
     31.6250	   28.00	   28.33	 -360.49
     31.6500	   27.00	   28.32	 -361.48
     31.6750	   23.00	   28.30	 -365.46
     31.7000	   29.00	   28.29	 -359.45
     31.7250	   31.00	   28.27	 -357.43
     31.7500	   21.00	   28.26	 -367.42
     31.7750	   25.00	   28.24	 -363.40
     31.8000	   37.00	   28.23	 -351.39
     31.8250	   35.00	   28.21	 -353.37
     31.8500	   27.00	   28.20	 -361.36
     31.8750	   29.00	   28.18	 -359.34
     31.9000	   19.00	   28.17	 -369.33
     31.9250	   27.00	   28.15	 -361.32
     31.9500	   36.00	   28.14	 -352.30
     31.9750	   38.00	   28.12	 -350.29
     32.0000	   26.00	   28.11	 -362.27
     32.0250	   38.00	   28.10	 -350.26
     32.0500	   22.00	   28.08	 -366.24
     32.0750	   27.00	   28.07	 -361.23
     32.1000	   30.00	   28.05	 -358.21
     32.1250	   32.00	   28.04	 -356.20
     32.1500	   25.00	   28.02	 -363.18
     32.1750	   34.00	   28.01	 -354.17
     32.2000	   25.00	   27.99	 -363.15
     32.2250	   33.00	   27.98	 -355.14
     32.2500	   29.00	   27.96	 -359.12
     32.2750	   25.00	   27.95	 -363.11
     32.3000	   36.00	   27.93	 -352.09
     32.3250	   31.00	   27.92	 -357.08
     32.3500	   27.00	   27.90	 -361.06
     32.3750	   27.00	   27.89	 -361.05
     32.4000	   27.00	   27.87	 -361.03
     32.4250	   31.00	   27.86	 -357.02
     32.4500	   36.00	   27.84	 -352.00
     32.4750	   21.00	   27.83	 -366.99
     32.5000	   31.00	   27.81	 -356.98
     32.5250	   32.00	   27.80	 -355.96
     32.5500	   20.00	   27.79	 -367.95
     32.5750	   33.00	   27.77	 -354.93
     32.6000	   25.00	   27.76	 -362.92
     32.6250	   31.00	   27.74	 -356.90
     32.6500	   26.00	   27.73	 -361.89
     32.6750	   26.00	   27.71	 -361.87
     32.7000	   25.00	   27.70	 -362.86
     32.7250	   30.00	   27.68	 -357.84
     32.7500	   28.00	   27.67	 -359.83
     32.7750	   38.00	   27.65	 -349.81
     32.8000	   24.00	   27.64	 -363.80
     32.8250	   24.00	   27.62	 -363.78
     32.8500	   25.00	   27.61	 -362.77
     32.8750	   22.00	   27.59	 -365.75
     32.9000	   28.00	   27.58	 -359.74
     32.9250	   27.00	   27.56	 -360.72
     32.9500	   30.00	   27.55	 -357.71
     32.9750	   14.00	   27.53	 -373.69
     33.0000	   29.00	   27.52	 -358.68
     33.0250	   20.00	   27.50	 -367.67
     33.0500	   22.00	   27.49	 -365.65
     33.0750	   32.00	   27.47	 -355.64
     33.1000	   37.00	   27.46	 -350.62
     33.1250	   32.00	   27.45	 -355.61
     33.1500	   35.00	   27.43	 -352.59
     33.1750	   34.00	   27.42	 -353.58
     33.2000	   30.00	   27.40	 -357.56
     33.2250	   30.00	   27.39	 -357.55
     33.2500	   24.00	   27.37	 -363.53
     33.2750	   33.00	   27.36	 -354.52
     33.3000	   26.00	   27.34	 -361.50
     33.3250	   24.00	   27.33	 -363.49
     33.3500	   21.00	   27.31	 -366.47
     33.3750	   26.00	   27.30	 -361.46
     33.4000	   21.00	   27.28	 -366.44
     33.4250	   38.00	   27.27	 -349.43
     33.4500	   23.00	   27.25	 -364.41
     33.4750	   30.00	   27.24	 -357.40
     33.5000	   32.00	   27.22	 -355.38
     33.5250	   26.00	   27.21	 -361.37
     33.5500	   37.00	   27.19	 -350.35
     33.5750	   27.00	   27.18	 -360.34
     33.6000	   29.00	   27.16	 -358.33
     33.6250	   34.00	   27.15	 -353.31
     33.6500	   35.00	   27.14	 -352.30
     33.6750	   31.00	   27.12	 -356.28
     33.7000	   32.00	   27.11	 -355.27
     33.7250	   26.00	   27.09	 -361.25
     33.7500	   24.00	   27.08	 -363.24
     33.7750	   35.00	   27.06	 -352.22
     33.8000	   35.00	   27.05	 -352.21
     33.8250	   27.00	   27.03	 -360.19
     33.8500	   23.00	   27.02	 -364.18
     33.8750	   26.00	   27.00	 -361.16
     33.9000	   36.00	   26.99	 -351.15
     33.9250	   27.00	   26.97	 -360.13
     33.9500	   35.00	   26.96	 -352.12
     33.9750	   18.00	   26.94	 -369.10
     34.0000	   44.00	   26.93	 -343.09
     34.0250	   47.00	   26.91	 -340.07
     34.0500	   24.00	   26.90	 -363.06
     34.0750	   18.00	   26.88	 -369.04
     34.1000	   29.00	   26.87	 -358.03
     34.1250	   29.00	   26.85	 -358.02
     34.1500	   33.00	   26.84	 -354.00
     34.1750	   42.00	   26.83	 -344.99
     34.2000	   17.00	   26.81	 -369.97
     34.2250	   15.00	   26.80	 -371.96
     34.2500	   16.00	   26.78	 -370.94
     34.2750	   28.00	   26.77	 -358.93
     34.3000	   26.00	   26.75	 -360.91
     34.3250	   23.00	   26.74	 -363.90
     34.3500	   28.00	   26.72	 -358.88
     34.3750	   22.00	   26.91	 -365.07
     34.4000	   29.00	   26.90	 -358.06
     34.4250	   27.00	   26.89	 -360.05
     34.4500	   28.00	   26.98	 -359.14
     34.4750	   29.00	   26.98	 -358.14
     34.5000	   26.00	   26.97	 -361.13
     34.5250	   18.00	   26.96	 -369.12
     34.5500	   25.00	   26.95	 -362.11
     34.5750	   20.00	   26.94	 -367.11
     34.6000	   30.00	   26.94	 -357.10
     34.6250	   30.00	   26.93	 -357.09
     34.6500	   27.00	   26.92	 -360.08
     34.6750	   28.00	   26.92	 -359.08
     34.7000	   23.00	   26.91	 -364.07
     34.7250	   34.00	   26.91	 -353.07
     34.7500	   26.00	   26.90	 -361.06
     34.7750	   29.00	   26.90	 -358.06
     34.8000	   36.00	   26.89	 -351.05
     34.8250	   30.00	   26.89	 -357.05
     34.8500	   27.00	   26.88	 -360.04
     34.8750	   22.00	   26.88	 -365.04
     34.9000	   26.00	   26.88	 -361.04
     34.9250	   20.00	   26.87	 -367.03
     34.9500	   25.00	   26.87	 -362.03
     34.9750	   36.00	   26.87	 -351.03
     35.0000	   27.00	   26.87	 -360.03
     35.0250	   31.00	   26.87	 -356.03
     35.0500	   17.00	   26.87	 -370.03
     35.0750	   27.00	   26.87	 -360.03
     35.1000	   33.00	   26.87	 -354.03
     35.1250	   26.00	   26.87	 -361.03
     35.1500	   25.00	   26.87	 -362.04
     35.1750	   32.00	   26.88	 -355.04
     35.2000	   23.00	   27.62	 -364.78
     35.2250	   37.00	   27.63	 -350.80
     35.2500	   30.00	   27.66	 -357.82
     35.2750	   23.00	   28.04	 -365.20
     35.3000	   27.00	   28.07	 -361.23
     35.3250	   28.00	   28.10	 -360.26
     35.3500	   30.00	   28.14	 -358.30
     35.3750	   25.00	   28.17	 -363.33
     35.4000	   18.00	   28.21	 -370.37
     35.4250	   39.00	   28.25	 -349.41
     35.4500	   37.00	   28.30	 -351.46
     35.4750	   42.00	   28.34	 -346.50
     35.5000	   37.00	   28.39	 -351.55
     35.5250	   35.00	   28.44	 -353.60
     35.5500	   32.00	   28.50	 -356.66
     35.5750	   32.00	   28.55	 -356.72
     35.6000	   37.00	   28.62	 -351.78
     35.6250	   32.00	   28.68	 -356.84
     35.6500	   43.00	   28.75	 -345.91
     35.6750	   29.00	   28.82	 -359.98
     35.7000	   26.00	   28.90	 -363.06
     35.7250	   31.00	   28.98	 -358.14
     35.7500	   38.00	   29.07	 -351.23
     35.7750	   33.00	   29.16	 -356.32
     35.8000	   28.00	   29.26	 -361.42
     35.8250	   34.00	   29.37	 -355.53
     35.8500	   27.00	   29.48	 -362.64
     35.8750	   52.00	   29.60	 -337.76
     35.9000	   33.00	   29.72	 -356.89
     35.9250	   43.00	   29.86	 -347.02
     35.9500	   45.00	   30.01	 -345.17
     35.9750	   45.00	   30.37	 -345.53
     36.0000	   38.00	   30.54	 -352.70
     36.0250	   44.00	   30.73	 -346.89
     36.0500	   41.00	   30.93	 -350.09
     36.0750	   35.00	   31.25	 -356.41
     36.1000	   54.00	   31.48	 -337.64
     36.1250	   38.00	   31.73	 -353.90
     36.1500	   54.00	   32.01	 -338.17
     36.1750	   44.00	   32.31	 -348.47
     36.2000	   27.00	   32.64	 -365.80
     36.2250	   43.00	   33.00	 -350.16
     36.2500	   25.00	   33.39	 -368.55
     36.2750	   31.00	   33.82	 -362.98
     36.3000	   48.00	   34.30	 -346.46
     36.3250	   35.00	   34.83	 -359.99
     36.3500	   46.00	   35.42	 -349.58
     36.3750	   30.00	   36.09	 -366.25
     36.4000	   31.00	   36.84	 -366.00
     36.4250	   46.00	   37.71	 -351.87
     36.4500	   43.00	   38.72	 -355.88
     36.4750	   46.00	   39.90	 -354.06
     36.5000	   51.00	   41.32	 -350.48
     36.5250	   42.00	   43.04	 -361.20
     36.5500	   46.00	   45.14	 -359.30
     36.5750	   52.00	   47.73	 -355.89
     36.6000	   47.00	   50.95	 -364.11
     36.6250	   57.00	   54.92	 -358.08
     36.6500	   65.00	   59.79	 -354.95
     36.6750	   70.00	   65.70	 -355.86
     36.7000	   65.00	   72.75	 -367.91
     36.7250	   85.00	   80.98	 -356.14
     36.7500	   99.00	   90.35	 -351.51
     36.7750	  106.00	  100.59	 -354.76
     36.8000	  107.00	  111.21	 -364.37
     36.8250	  136.00	  121.33	 -345.49
     36.8500	  124.00	  129.83	 -365.99
     36.8750	  138.00	  135.61	 -357.77
     36.9000	  136.00	  138.02	 -362.18
     36.9250	  118.00	  137.00	 -379.17
     36.9500	  124.00	  133.01	 -369.17
     36.9750	  125.00	  126.68	 -361.84
     37.0000	  113.00	  118.75	 -365.91
     37.0250	   99.00	  110.02	 -371.18
     37.0500	   91.00	  101.29	 -370.45
     37.0750	   94.00	   93.19	 -359.35
     37.1000	   82.00	   86.11	 -364.27
     37.1250	   68.00	   80.24	 -372.40
     37.1500	   85.00	   75.63	 -350.79
     37.1750	   63.00	   72.24	 -369.40
     37.2000	   62.00	   69.99	 -368.15
     37.2250	   93.00	   68.81	 -335.97
     37.2500	   80.00	   68.62	 -348.78
     37.2750	   69.00	   69.39	 -360.55
     37.3000	   58.00	   71.14	 -373.30
     37.3250	   89.00	   73.94	 -345.10
     37.3500	   95.00	   77.93	 -343.09
     37.3750	   91.00	   83.34	 -352.50
     37.4000	  105.00	   90.47	 -345.63
     37.4250	  129.00	   99.70	 -330.87
     37.4500	  112.00	  111.48	 -359.64
     37.4750	  138.00	  126.28	 -348.44
     37.5000	  149.00	  144.56	 -355.72
     37.5250	  182.00	  166.73	 -344.89
     37.5500	  224.00	  193.00	 -329.16
     37.5750	  283.00	  223.29	 -300.45
     37.6000	  268.00	  256.97	 -349.13
     37.6250	  324.00	  292.58	 -328.74
     37.6500	  337.00	  327.51	 -350.68
     37.6750	  378.00	  358.08	 -340.24
     37.7000	  375.00	  380.27	 -365.43
     37.7250	  410.00	  391.13	 -341.29
     37.7500	  395.00	  389.82	 -354.99
     37.7750	  345.00	  377.41	 -392.57
     37.8000	  311.00	  355.89	 -405.05
     37.8250	  367.00	  327.59	 -320.75
     37.8500	  307.00	  295.16	 -348.32
     37.8750	  257.00	  261.35	 -364.51
     37.9000	  207.00	  228.57	 -381.73
     37.9250	  252.00	  198.51	 -306.67
     37.9500	  187.00	  172.05	 -345.21
     37.9750	  178.00	  149.49	 -331.65
     38.0000	  143.00	  130.72	 -347.88
     38.0250	   99.00	  115.45	 -376.61
     38.0500	   99.00	  103.24	 -364.40
     38.0750	  119.00	   93.66	 -334.82
     38.1000	   96.00	   86.30	 -350.46
     38.1250	   87.00	   80.80	 -353.96
     38.1500	   94.00	   76.88	 -343.04
     38.1750	   76.00	   74.34	 -358.50
     38.2000	   90.00	   73.05	 -343.21
     38.2250	   74.00	   72.97	 -359.13
     38.2500	   97.00	   74.08	 -337.24
     38.2750	   76.00	   76.43	 -360.59
     38.3000	   98.00	   80.07	 -342.23
     38.3250	  110.00	   85.04	 -335.20
     38.3500	  105.00	   91.33	 -346.49
     38.3750	  115.00	   98.85	 -344.01
     38.4000	  125.00	  107.32	 -342.48
     38.4250	  126.00	  116.22	 -350.38
     38.4500	  141.00	  124.68	 -343.84
     38.4750	  164.00	  131.62	 -327.78
     38.5000	  145.00	  135.97	 -351.13
     38.5250	  179.00	  137.11	 -318.27
     38.5500	  164.00	  135.00	 -331.16
     38.5750	  135.00	  130.07	 -355.23
     38.6000	  133.00	  122.87	 -350.03
     38.6250	  124.00	  114.05	 -350.21
     38.6500	  118.00	  104.33	 -346.49
     38.6750	  110.00	   94.45	 -344.62
     38.7000	   93.00	   85.02	 -352.18
     38.7250	   97.00	   76.44	 -339.60
     38.7500	   88.00	   68.89	 -341.05
     38.7750	   72.00	   62.43	 -350.59
     38.8000	   71.00	   57.00	 -346.16
     38.8250	   61.00	   52.50	 -351.66
     38.8500	   34.00	   48.81	 -374.98
     38.8750	   40.00	   45.80	 -365.96
     38.9000	   54.00	   43.34	 -349.50
     38.9250	   42.00	   41.33	 -359.49
     38.9500	   53.00	   39.67	 -346.83
     38.9750	   48.00	   38.28	 -350.44
     39.0000	   45.00	   37.11	 -352.27
     39.0250	   34.00	   36.10	 -362.26
     39.0500	   24.00	   35.23	 -371.39
     39.0750	   34.00	   34.46	 -360.62
     39.1000	   34.00	   33.78	 -359.94
     39.1250	   33.00	   33.17	 -360.33
     39.1500	   39.00	   32.62	 -353.78
     39.1750	   41.00	   32.12	 -351.28
     39.2000	   33.00	   31.66	 -358.82
     39.2250	   38.00	   31.25	 -353.41
     39.2500	   21.00	   30.86	 -370.02
     39.2750	   24.00	   30.51	 -366.67
     39.3000	   39.00	   30.18	 -351.34
     39.3250	   23.00	   29.88	 -367.04
     39.3500	   33.00	   29.60	 -356.76
     39.3750	   39.00	   29.13	 -350.29
     39.4000	   31.00	   28.88	 -358.05
     39.4250	   33.00	   28.66	 -355.82
     39.4500	   23.00	   28.44	 -365.61
     39.4750	   19.00	   28.14	 -369.30
     39.5000	   33.00	   27.95	 -355.12
     39.5250	   21.00	   27.78	 -366.94
     39.5500	   29.00	   27.61	 -358.77
     39.5750	   21.00	   27.45	 -366.61
     39.6000	   30.00	   27.30	 -357.46
     39.6250	   35.00	   27.16	 -352.32
     39.6500	   21.00	   27.03	 -366.19
     39.6750	   29.00	   26.90	 -358.06
     39.7000	   22.00	   26.77	 -364.93
     39.7250	   31.00	   26.66	 -355.82
     39.7500	   23.00	   26.54	 -363.70
     39.7750	   27.00	   26.44	 -359.60
     39.8000	   26.00	   26.33	 -360.49
     39.8250	   24.00	   26.23	 -362.39
     39.8500	   25.00	   26.14	 -361.30
     39.8750	   23.00	   26.05	 -363.21
     39.9000	   24.00	   25.96	 -362.12
     39.9250	   24.00	   25.87	 -362.04
     39.9500	   30.00	   25.79	 -355.95
     39.9750	   36.00	   25.71	 -349.87
     40.0000	   27.00	   25.64	 -358.80
     40.0250	   22.00	   25.56	 -363.72
     40.0500	   16.00	   25.49	 -369.65
     40.0750	   25.00	   25.42	 -360.58
     40.1000	   21.00	   25.36	 -364.52
     40.1250	   24.00	   25.29	 -361.45
     40.1500	   14.00	   25.23	 -371.39
     40.1750	   22.00	   25.17	 -363.33
     40.2000	   32.00	   25.11	 -353.27
     40.2250	   29.00	   24.32	 -355.48
     40.2500	   31.00	   24.28	 -353.44
     40.2750	   19.00	   24.24	 -365.40
     40.3000	   28.00	   24.20	 -356.36
     40.3250	   29.00	   23.80	 -354.96
     40.3500	   27.00	   23.77	 -356.93
     40.3750	   25.00	   23.74	 -358.90
     40.4000	   29.00	   23.71	 -354.87
     40.4250	   24.00	   23.68	 -359.84
     40.4500	   22.00	   23.65	 -361.81
     40.4750	   28.00	   23.62	 -355.78
     40.5000	   25.00	   23.59	 -358.75
     40.5250	   23.00	   23.56	 -360.73
     40.5500	   21.00	   23.54	 -362.70
     40.5750	   26.00	   23.51	 -357.67
     40.6000	   21.00	   23.49	 -362.65
     40.6250	   23.00	   23.46	 -360.62
     40.6500	   34.00	   23.43	 -349.60
     40.6750	   40.00	   23.41	 -343.57
     40.7000	   25.00	   23.39	 -358.55
     40.7250	   20.00	   23.36	 -363.52
     40.7500	   26.00	   23.34	 -357.50
     40.7750	   16.00	   23.31	 -367.47
     40.8000	   22.00	   23.29	 -361.45
     40.8250	   24.00	   23.27	 -359.43
     40.8500	   14.00	   23.24	 -369.41
     40.8750	   22.00	   23.22	 -361.38
     40.9000	   30.00	   23.20	 -353.36
     40.9250	   33.00	   23.18	 -350.34
     40.9500	   27.00	   23.16	 -356.32
     40.9750	   20.00	   23.13	 -363.30
     41.0000	   21.00	   23.11	 -362.27
     41.0250	   27.00	   22.89	 -356.05
     41.0500	   26.00	   22.87	 -357.03
     41.0750	   22.00	   22.85	 -361.01
     41.1000	   23.00	   22.84	 -360.00
     41.1250	   26.00	   22.72	 -356.88
     41.1500	   29.00	   22.70	 -353.86
     41.1750	   29.00	   22.69	 -353.85
     41.2000	   22.00	   22.67	 -360.83
     41.2250	   28.00	   22.66	 -354.82
     41.2500	   17.00	   22.64	 -365.81
     41.2750	   37.00	   22.63	 -345.79
     41.3000	   31.00	   22.61	 -351.78
     41.3250	   23.00	   22.60	 -359.76
     41.3500	   22.00	   22.59	 -360.75
     41.3750	   28.00	   22.57	 -354.73
     41.4000	   21.00	   22.56	 -361.72
     41.4250	   16.00	   22.54	 -366.70
     41.4500	   25.00	   22.53	 -357.69
     41.4750	   20.00	   22.51	 -362.67
     41.5000	   19.00	   22.50	 -363.66
     41.5250	   20.00	   22.48	 -362.64
     41.5500	   24.00	   22.47	 -358.63
     41.5750	   24.00	   22.45	 -358.61
     41.6000	   21.00	   22.44	 -361.60
     41.6250	   25.00	   22.42	 -357.58
     41.6500	   24.00	   22.41	 -358.57
     41.6750	   17.00	   22.39	 -365.55
     41.7000	   16.00	   22.38	 -366.54
     41.7250	   18.00	   22.36	 -364.52
     41.7500	   24.00	   22.35	 -358.51
     41.7750	   25.00	   22.33	 -357.49
     41.8000	   20.00	   22.32	 -362.48
     41.8250	   21.00	   22.30	 -361.47
     41.8500	   33.00	   22.29	 -349.45
     41.8750	   20.00	   22.28	 -362.44
     41.9000	   20.00	   22.26	 -362.42
     41.9250	   22.00	   22.25	 -360.41
     41.9500	   26.00	   22.23	 -356.39
     41.9750	   23.00	   22.22	 -359.38
     42.0000	   24.00	   22.20	 -358.36
     42.0250	   21.00	   22.19	 -361.35
     42.0500	   27.00	   22.17	 -355.33
     42.0750	   15.00	   22.16	 -367.32
     42.1000	   11.00	   22.14	 -371.30
     42.1250	   30.00	   22.13	 -352.29
     42.1500	   27.00	   22.11	 -355.27
     42.1750	   22.00	   22.10	 -360.26
     42.2000	   24.00	   22.08	 -358.24
     42.2250	   21.00	   22.07	 -361.23
     42.2500	   24.00	   22.05	 -358.21
     42.2750	   19.00	   22.04	 -363.20
     42.3000	   20.00	   22.02	 -362.18
     42.3250	   20.00	   22.01	 -362.17
     42.3500	   24.00	   21.99	 -358.16
     42.3750	   20.00	   21.98	 -362.14
     42.4000	   17.00	   21.97	 -365.13
     42.4250	   31.00	   21.95	 -351.11
     42.4500	   24.00	   21.94	 -358.10
     42.4750	   10.00	   21.92	 -372.08
     42.5000	   22.00	   21.91	 -360.07
     42.5250	   19.00	   21.89	 -363.05
     42.5500	   24.00	   21.88	 -358.04
     42.5750	   16.00	   21.86	 -366.02
     42.6000	   18.00	   21.85	 -364.01
     42.6250	   23.00	   21.83	 -358.99
     42.6500	   22.00	   21.82	 -359.98
     42.6750	   14.00	   21.80	 -367.96
     42.7000	   23.00	   21.79	 -358.95
     42.7250	   20.00	   21.77	 -361.93
     42.7500	   19.00	   21.76	 -362.92
     42.7750	   20.00	   21.74	 -361.90
     42.8000	   26.00	   21.73	 -355.89
     42.8250	   24.00	   21.71	 -357.87
     42.8500	   16.00	   21.70	 -365.86
     42.8750	   18.00	   21.68	 -363.84
     42.9000	   15.00	   21.67	 -366.83
     42.9250	   31.00	   21.65	 -350.82
     42.9500	   14.00	   21.64	 -367.80
     42.9750	   23.00	   21.63	 -358.79
     43.0000	   25.00	   21.61	 -356.77
     43.0250	   22.00	   21.60	 -359.76
     43.0500	   30.00	   21.58	 -351.74
     43.0750	   24.00	   21.57	 -357.73
     43.1000	   19.00	   21.55	 -362.71
     43.1250	   30.00	   21.54	 -351.70
     43.1500	   23.00	   21.52	 -358.68
     43.1750	   19.00	   21.51	 -362.67
     43.2000	   23.00	   21.49	 -358.65
     43.2250	   30.00	   21.48	 -351.64
     43.2500	   18.00	   21.46	 -363.62
     43.2750	   28.00	   21.45	 -353.61
     43.3000	   26.00	   21.43	 -355.59
     43.3250	   28.00	   21.42	 -353.58
     43.3500	   23.00	   21.41	 -358.57
     43.3750	   20.00	   21.42	 -361.58
     43.4000	   19.00	   21.43	 -362.59
     43.4250	   27.00	   21.44	 -354.60
     43.4500	   30.00	   21.45	 -351.61
     43.4750	   26.00	   21.46	 -355.62
     43.5000	   34.00	   21.47	 -347.63
     43.5250	   14.00	   21.48	 -367.64
     43.5500	   29.00	   21.49	 -352.65
     43.5750	   22.00	   21.50	 -359.66
     43.6000	   22.00	   21.51	 -359.67
     43.6250	   29.00	   21.52	 -352.68
     43.6500	   28.00	   21.53	 -353.69
     43.6750	   23.00	   21.54	 -358.70
     43.7000	   23.00	   21.55	 -358.71
     43.7250	   32.00	   21.56	 -349.72
     43.7500	   32.00	   21.57	 -349.73
     43.7750	   26.00	   21.58	 -355.74
     43.8000	   23.00	   21.59	 -358.75
     43.8250	   16.00	   21.60	 -365.76
     43.8500	   28.00	   21.61	 -353.77
     43.8750	   30.00	   21.62	 -351.78
     43.9000	   19.00	   21.63	 -362.79
     43.9250	   26.00	   21.64	 -355.80
     43.9500	   18.00	   21.65	 -363.81
     43.9750	   19.00	   21.66	 -362.82
     44.0000	   27.00	   21.67	 -354.83
     44.0250	   36.00	   21.68	 -345.84
     44.0500	   36.00	   21.69	 -345.85
     44.0750	   21.00	   21.70	 -360.86
     44.1000	   22.00	   21.71	 -359.87
     44.1250	   20.00	   21.72	 -361.88
     44.1500	   23.00	   21.73	 -358.89
     44.1750	   21.00	   21.74	 -360.90
     44.2000	    9.00	   21.75	 -372.91
     44.2250	   14.00	   21.76	 -367.92
     44.2500	   17.00	   21.77	 -364.93
     44.2750	   25.00	   21.78	 -356.94
     44.3000	   15.00	   21.79	 -366.95
     44.3250	   16.00	   21.80	 -365.96
     44.3500	   25.00	   21.81	 -356.97
     44.3750	   21.00	   21.82	 -360.98
     44.4000	   24.00	   21.83	 -357.99
     44.4250	   17.00	   21.84	 -365.00
     44.4500	   14.00	   21.85	 -368.01
     44.4750	   26.00	   21.86	 -356.02
     44.5000	   17.00	   21.87	 -365.03
     44.5250	   22.00	   21.88	 -360.04
     44.5500	   19.00	   21.89	 -363.05
     44.5750	   20.00	   21.90	 -362.06
     44.6000	   20.00	   21.91	 -362.07
     44.6250	   23.00	   21.92	 -359.08
     44.6500	   18.00	   21.93	 -364.09
     44.6750	   35.00	   21.94	 -347.10
     44.7000	   27.00	   21.95	 -355.11
     44.7250	   24.00	   21.96	 -358.12
     44.7500	   17.00	   21.97	 -365.13
     44.7750	   22.00	   21.98	 -360.14
     44.8000	   23.00	   21.98	 -359.15
     44.8250	   31.00	   21.99	 -351.16
     44.8500	   21.00	   22.00	 -361.17
     44.8750	   15.00	   22.01	 -367.18
     44.9000	   22.00	   22.02	 -360.18
     44.9250	   24.00	   22.03	 -358.19
     44.9500	   23.00	   22.04	 -359.20
     44.9750	   25.00	   22.05	 -357.21
     45.0000	   23.00	   22.06	 -359.22
     45.0250	   26.00	   22.07	 -356.23
     45.0500	   19.00	   22.08	 -363.24
     45.0750	   22.00	   22.09	 -360.25
     45.1000	   23.00	   22.10	 -359.26
     45.1250	   21.00	   22.11	 -361.27
     45.1500	   21.00	   22.12	 -361.28
     45.1750	   18.00	   22.13	 -364.29
     45.2000	   17.00	   22.14	 -365.30
     45.2250	   28.00	   22.15	 -354.31
     45.2500	   28.00	   23.33	 -355.49
     45.2750	   21.00	   23.36	 -362.52
     45.3000	   21.00	   23.39	 -362.55
     45.3250	   15.00	   23.42	 -368.58
     45.3500	   16.00	   23.46	 -367.62
     45.3750	   31.00	   24.07	 -353.23
     45.4000	   28.00	   24.11	 -356.28
     45.4250	   20.00	   24.16	 -364.32
     45.4500	   30.00	   24.21	 -354.37
     45.4750	   18.00	   24.26	 -366.42
     45.5000	   29.00	   24.31	 -355.47
     45.5250	   15.00	   24.36	 -369.52
     45.5500	   29.00	   24.41	 -355.57
     45.5750	   24.00	   24.46	 -360.62
     45.6000	   19.00	   24.52	 -365.68
     45.6250	   25.00	   24.58	 -359.74
     45.6500	   31.00	   24.63	 -353.79
     45.6750	   21.00	   24.69	 -363.85
     45.7000	   22.00	   24.75	 -362.91
     45.7250	   29.00	   24.82	 -355.98
     45.7500	   34.00	   24.88	 -351.04
     45.7750	   34.00	   24.95	 -351.11
     45.8000	   32.00	   25.01	 -353.17
     45.8250	   35.00	   25.08	 -350.25
     45.8500	   38.00	   25.16	 -347.32
     45.8750	   24.00	   25.23	 -361.39
     45.9000	   33.00	   25.31	 -352.47
     45.9250	   32.00	   25.39	 -353.55
     45.9500	   43.00	   25.47	 -342.63
     45.9750	   35.00	   25.55	 -350.71
     46.0000	   24.00	   25.64	 -361.80
     46.0250	   27.00	   25.73	 -358.89
     46.0500	   29.00	   25.82	 -356.98
     46.0750	   25.00	   25.92	 -361.08
     46.1000	   31.00	   26.02	 -355.18
     46.1250	   36.00	   26.12	 -350.28
     46.1500	   30.00	   26.23	 -356.39
     46.1750	   18.00	   26.34	 -368.50
     46.2000	   34.00	   26.45	 -352.61
     46.2250	   26.00	   26.57	 -360.73
     46.2500	   21.00	   26.70	 -365.86
     46.2750	   29.00	   26.82	 -357.99
     46.3000	   20.00	   26.96	 -367.12
     46.3250	   36.00	   27.10	 -351.26
     46.3500	   27.00	   27.24	 -360.40
     46.3750	   31.00	   27.40	 -356.56
     46.4000	   37.00	   27.55	 -350.71
     46.4250	   33.00	   27.72	 -354.88
     46.4500	   17.00	   27.89	 -371.05
     46.4750	   31.00	   28.07	 -357.23
     46.5000	   28.00	   28.26	 -360.42
     46.5250	   19.00	   28.46	 -369.62
     46.5500	   21.00	   28.66	 -367.82
     46.5750	   28.00	   28.88	 -361.04
     46.6000	   30.00	   29.11	 -359.27
     46.6250	   25.00	   29.35	 -364.51
     46.6500	   34.00	   29.60	 -355.76
     46.6750	   31.00	   29.87	 -359.03
     46.7000	   29.00	   30.15	 -361.31
     46.7250	   28.00	   30.45	 -362.61
     46.7500	   33.00	   30.76	 -357.92
     46.7750	   28.00	   31.09	 -363.25
     46.8000	   19.00	   31.44	 -372.60
     46.8250	   27.00	   31.81	 -364.97
     46.8500	   35.00	   32.21	 -357.37
     46.8750	   37.00	   32.63	 -355.79
     46.9000	   29.00	   33.08	 -364.24
     46.9250	   32.00	   33.56	 -361.72
     46.9500	   27.00	   34.07	 -367.23
     46.9750	   33.00	   34.61	 -361.77
     47.0000	   33.00	   35.20	 -362.36
     47.0250	   24.00	   35.82	 -371.98
     47.0500	   36.00	   36.50	 -360.66
     47.0750	   46.00	   37.22	 -351.39
     47.1000	   37.00	   38.01	 -361.17
     47.1250	   38.00	   38.86	 -361.02
     47.1500	   46.00	   39.78	 -353.94
     47.1750	   36.00	   40.77	 -364.93
     47.2000	   49.00	   41.86	 -353.02
     47.2250	   50.00	   43.05	 -353.21
     47.2500	   40.00	   44.34	 -364.50
     47.2750	   50.00	   45.77	 -355.93
     47.3000	   49.00	   47.33	 -358.49
     47.3250	   48.00	   49.06	 -361.22
     47.3500	   66.00	   50.98	 -345.14
     47.3750	   59.00	   53.11	 -354.27
     47.4000	   54.00	   55.50	 -361.66
     47.4250	   70.00	   58.19	 -348.35
     47.4500	   51.00	   61.25	 -370.41
     47.4750	   60.00	   64.75	 -364.91
     47.5000	   76.00	   68.80	 -352.96
     47.5250	   76.00	   73.55	 -357.71
     47.5500	   93.00	   79.17	 -346.34
     47.5750	   98.00	   85.93	 -348.09
     47.6000	  115.00	   94.12	 -339.29
     47.6250	  125.00	  104.14	 -339.30
     47.6500	  137.00	  116.44	 -339.60
     47.6750	  153.00	  131.55	 -338.71
     47.7000	  153.00	  150.06	 -357.22
     47.7250	  182.00	  172.56	 -350.72
     47.7500	  235.00	  199.64	 -324.80
     47.7750	  290.00	  231.78	 -301.94
     47.8000	  297.00	  269.27	 -332.43
     47.8250	  362.00	  312.09	 -310.25
     47.8500	  405.00	  359.60	 -314.76
     47.8750	  436.00	  410.34	 -334.50
     47.9000	  530.00	  461.61	 -291.77
     47.9250	  577.00	  509.37	 -292.53
     47.9500	  601.00	  548.75	 -307.91
     47.9750	  644.00	  575.33	 -291.49
     48.0000	  623.00	  586.71	 -323.87
     48.0250	  621.00	  583.17	 -322.33
     48.0500	  582.00	  566.78	 -344.94
     48.0750	  652.00	  539.93	 -248.09
     48.1000	  548.00	  504.66	 -316.82
     48.1250	  539.00	  462.92	 -284.08
     48.1500	  480.00	  417.13	 -297.29
     48.1750	  390.00	  370.11	 -340.28
     48.2000	  359.00	  324.46	 -325.62
     48.2250	  306.00	  282.12	 -336.28
     48.2500	  260.00	  244.21	 -344.37
     48.2750	  221.00	  211.15	 -350.32
     48.3000	  190.00	  182.92	 -353.08
     48.3250	  171.00	  159.16	 -348.32
     48.3500	  148.00	  139.41	 -351.57
     48.3750	  144.00	  123.11	 -339.27
     48.4000	  111.00	  109.75	 -358.91
     48.4250	  125.00	   98.80	 -333.96
     48.4500	   93.00	   89.82	 -356.98
     48.4750	   92.00	   82.42	 -350.58
     48.5000	   90.00	   76.28	 -346.44
     48.5250	   68.00	   71.13	 -363.29
     48.5500	   79.00	   66.77	 -347.93
     48.5750	   83.00	   63.03	 -340.20
     48.6000	   63.00	   59.80	 -356.96
     48.6250	   51.00	   56.97	 -366.13
     48.6500	   55.00	   54.47	 -359.63
     48.6750	   51.00	   52.26	 -361.42
     48.7000	   43.00	   50.27	 -367.43
     48.7250	   53.00	   48.49	 -355.65
     48.7500	   47.00	   46.89	 -360.05
     48.7750	   39.00	   45.43	 -366.59
     48.8000	   42.00	   44.11	 -362.27
     48.8250	   34.00	   42.90	 -369.06
     48.8500	   40.00	   41.80	 -361.96
     48.8750	   46.00	   40.79	 -354.95
     48.9000	   30.00	   39.86	 -370.02
     48.9250	   39.00	   39.01	 -360.17
     48.9500	   26.00	   38.22	 -372.38
     48.9750	   28.00	   37.50	 -369.66
     49.0000	   37.00	   36.82	 -359.98
     49.0250	   39.00	   36.20	 -357.36
     49.0500	   44.00	   35.62	 -351.78
     49.0750	   39.00	   35.08	 -356.24
     49.1000	   34.00	   34.58	 -360.74
     49.1250	   34.00	   34.11	 -360.27
     49.1500	   37.00	   33.67	 -356.83
     49.1750	   28.00	   33.26	 -365.42
     49.2000	   26.00	   32.88	 -367.04
     49.2250	   39.00	   32.52	 -353.68
     49.2500	   29.00	   32.18	 -363.34
     49.2750	   27.00	   31.86	 -365.02
     49.3000	   28.00	   31.56	 -363.72
     49.3250	   31.00	   31.28	 -360.44
     49.3500	   37.00	   31.01	 -354.17
     49.3750	   25.00	   30.76	 -365.92
     49.4000	   31.00	   30.52	 -359.68
     49.4250	   25.00	   30.30	 -365.46
     49.4500	   24.00	   30.09	 -366.25
     49.4750	   34.00	   29.88	 -356.05
     49.5000	   37.00	   29.69	 -352.85
     49.5250	   34.00	   29.51	 -355.67
     49.5500	   29.00	   29.34	 -360.50
     49.5750	   30.00	   29.18	 -359.34
     49.6000	   29.00	   29.02	 -360.18
     49.6250	   23.00	   28.87	 -366.03
     49.6500	   27.00	   28.73	 -361.89
     49.6750	   25.00	   28.60	 -363.76
     49.7000	   39.00	   28.47	 -349.63
     49.7250	   25.00	   28.35	 -363.51
     49.7500	   26.00	   28.23	 -362.39
     49.7750	   30.00	   28.12	 -358.28
     49.8000	   19.00	   28.02	 -369.18
     49.8250	   23.00	   27.92	 -365.08
     49.8500	   21.00	   27.82	 -366.98
     49.8750	   36.00	   27.73	 -351.89
     49.9000	   22.00	   27.64	 -365.80
     49.9250	   18.00	   27.55	 -369.72
     49.9500	   32.00	   27.47	 -355.63
     49.9750	   35.00	   27.40	 -352.56
     50.0000	   24.00	   27.32	 -363.48
     50.0250	   19.00	   27.25	 -368.41
     50.0500	   21.00	   27.18	 -366.34
     50.0750	   30.00	   27.12	 -357.28
     50.1000	   29.00	   27.05	 -358.22
     50.1250	   30.00	   26.99	 -357.16
     50.1500	   28.00	   26.94	 -359.10
     50.1750	   20.00	   26.88	 -367.04
     50.2000	   23.00	   26.83	 -363.99
     50.2250	   34.00	   26.78	 -352.94
     50.2500	   27.00	   26.73	 -359.89
     50.2750	   21.00	   26.68	 -365.84
     50.3000	   36.00	   26.64	 -350.80
     50.3250	   30.00	   26.59	 -356.75
     50.3500	   33.00	   26.55	 -353.71
     50.3750	   31.00	   26.51	 -355.67
     50.4000	   20.00	   26.47	 -366.63
     50.4250	   30.00	   26.44	 -356.60
     50.4500	   22.00	   26.40	 -364.56
     50.4750	   18.00	   26.37	 -368.53
     50.5000	   25.00	   26.33	 -361.49
     50.5250	   18.00	   26.30	 -368.46
     50.5500	   29.00	   26.27	 -357.43
     50.5750	   24.00	   26.24	 -362.40
     50.6000	   20.00	   26.21	 -366.37
     50.6250	   15.00	   26.19	 -371.35
     50.6500	   17.00	   26.16	 -369.32
     50.6750	   23.00	   26.13	 -363.29
     50.7000	   32.00	   24.95	 -353.11
     50.7250	   27.00	   24.92	 -358.08
     50.7500	   19.00	   24.90	 -366.06
     50.7750	   14.00	   24.88	 -371.04
     50.8000	   19.00	   24.85	 -366.02
     50.8250	   27.00	   24.25	 -357.41
     50.8500	   30.00	   24.24	 -354.40
     50.8750	   22.00	   24.23	 -362.39
     50.9000	   37.00	   25.03	 -348.19
     50.9250	   21.00	   25.03	 -364.19
     50.9500	   24.00	   25.04	 -361.20
     50.9750	   39.00	   25.04	 -346.20
     51.0000	   29.00	   25.04	 -356.20
     51.0250	   16.00	   25.05	 -369.21
     51.0500	   24.00	   25.46	 -361.62
     51.0750	   26.00	   25.47	 -359.63
     51.1000	   16.00	   25.48	 -369.65
     51.1250	   20.00	   25.50	 -365.66
     51.1500	   28.00	   25.51	 -357.67
     51.1750	   39.00	   25.53	 -346.69
     51.2000	   21.00	   25.54	 -364.70
     51.2250	   31.00	   25.56	 -354.72
     51.2500	   27.00	   25.58	 -358.74
     51.2750	   25.00	   25.60	 -360.76
     51.3000	   28.00	   25.61	 -357.78
     51.3250	   33.00	   25.63	 -352.80
     51.3500	   39.00	   25.66	 -346.82
     51.3750	   30.00	   25.68	 -355.84
     51.4000	   31.00	   25.70	 -354.86
     51.4250	   29.00	   25.72	 -356.89
     51.4500	   27.00	   25.75	 -358.91
     51.4750	   38.00	   25.78	 -347.94
     51.5000	   27.00	   25.80	 -358.96
     51.5250	   24.00	   25.83	 -361.99
     51.5500	   31.00	   25.86	 -355.02
     51.5750	   30.00	   25.89	 -356.05
     51.6000	   30.00	   25.93	 -356.09
     51.6250	   25.00	   25.96	 -361.12
     51.6500	   29.00	   26.00	 -357.16
     51.6750	   28.00	   26.04	 -358.20
     51.7000	   26.00	   26.07	 -360.23
     51.7250	   27.00	   26.12	 -359.28
     51.7500	   28.00	   26.16	 -358.32
     51.7750	   37.00	   26.20	 -349.36
     51.8000	   26.00	   26.25	 -360.41
     51.8250	   32.00	   26.30	 -354.46
     51.8500	   24.00	   26.35	 -362.51
     51.8750	   25.00	   26.40	 -361.57
     51.9000	   27.00	   26.46	 -359.62
     51.9250	   31.00	   26.52	 -355.68
     51.9500	   27.00	   26.58	 -359.74
     51.9750	   17.00	   26.65	 -369.81
     52.0000	   22.00	   26.71	 -364.88
     52.0250	   30.00	   26.79	 -356.95
     52.0500	   26.00	   26.86	 -361.02
     52.0750	   32.00	   27.73	 -355.90
     52.1000	   40.00	   27.83	 -347.99
     52.1250	   29.00	   27.93	 -359.09
     52.1500	   31.00	   28.04	 -357.20
     52.1750	   34.00	   28.15	 -354.31
     52.2000	   32.00	   28.65	 -356.81
     52.2250	   29.00	   28.78	 -359.94
     52.2500	   34.00	   28.91	 -355.07
     52.2750	   32.00	   29.05	 -357.21
     52.3000	   28.00	   29.20	 -361.36
     52.3250	   27.00	   29.35	 -362.51
     52.3500	   27.00	   29.51	 -362.67
     52.3750	   36.00	   29.68	 -353.84
     52.4000	   34.00	   29.86	 -356.02
     52.4250	   39.00	   30.05	 -351.21
     52.4500	   34.00	   30.25	 -356.41
     52.4750	   47.00	   30.46	 -343.62
     52.5000	   42.00	   30.68	 -348.84
     52.5250	   28.00	   30.91	 -363.07
     52.5500	   34.00	   31.15	 -357.31
     52.5750	   31.00	   31.41	 -360.57
     52.6000	   28.00	   31.69	 -363.85
     52.6250	   33.00	   31.98	 -359.14
     52.6500	   39.00	   32.29	 -353.45
     52.6750	   32.00	   32.61	 -360.78
     52.7000	   36.00	   32.96	 -357.12
     52.7250	   29.00	   33.33	 -364.50
     52.7500	   38.00	   33.73	 -355.89
     52.7750	   37.00	   34.15	 -357.31
     52.8000	   36.00	   34.61	 -358.77
     52.8250	   42.00	   35.09	 -353.25
     52.8500	   36.00	   35.61	 -359.77
     52.8750	   29.00	   36.16	 -367.32
     52.9000	   39.00	   36.76	 -357.92
     52.9250	   51.00	   37.41	 -346.57
     52.9500	   30.00	   38.11	 -368.27
     52.9750	   32.00	   38.86	 -367.02
     53.0000	   24.00	   39.68	 -375.84
     53.0250	   31.00	   40.57	 -369.73
     53.0500	   36.00	   41.54	 -365.70
     53.0750	   48.00	   42.59	 -354.75
     53.1000	   44.00	   43.75	 -359.91
     53.1250	   46.00	   45.02	 -359.18
     53.1500	   34.00	   46.43	 -372.59
     53.1750	   50.00	   47.98	 -358.14
     53.2000	   44.00	   49.71	 -365.87
     53.2250	   48.00	   51.65	 -363.81
     53.2500	   57.00	   53.84	 -357.00
     53.2750	   63.00	   56.33	 -353.49
     53.3000	   61.00	   59.19	 -358.35
     53.3250	   46.00	   62.52	 -376.68
     53.3500	   69.00	   66.43	 -357.59
     53.3750	   66.00	   71.07	 -365.23
     53.4000	   73.00	   76.63	 -363.79
     53.4250	   88.00	   83.34	 -355.50
     53.4500	  105.00	   91.46	 -346.62
     53.4750	  104.00	  101.30	 -357.46
     53.5000	  117.00	  113.20	 -356.36
     53.5250	  129.00	  127.50	 -358.66
     53.5500	  164.00	  144.54	 -340.70
     53.5750	  167.00	  164.62	 -357.78
     53.6000	  206.00	  187.95	 -342.11
     53.6250	  204.00	  214.58	 -370.74
     53.6500	  266.00	  244.32	 -338.48
     53.6750	  299.00	  276.56	 -337.72
     53.7000	  340.00	  310.15	 -330.31
     53.7250	  339.00	  343.16	 -364.32
     53.7500	  373.00	  373.05	 -360.21
     53.7750	  444.00	  396.96	 -313.12
     53.8000	  458.00	  412.57	 -314.73
     53.8250	  454.00	  418.90	 -325.06
     53.8500	  418.00	  416.43	 -358.60
     53.8750	  448.00	  406.58	 -318.74
     53.9000	  395.00	  390.80	 -355.96
     53.9250	  398.00	  370.15	 -332.31
     53.9500	  349.00	  345.48	 -356.64
     53.9750	  335.00	  317.80	 -342.96
     54.0000	  304.00	  288.47	 -344.63
     54.0250	  247.00	  259.02	 -372.18
     54.0500	  223.00	  230.83	 -367.99
     54.0750	  218.00	  204.86	 -347.02
     54.1000	  197.00	  181.66	 -344.82
     54.1250	  195.00	  161.42	 -326.58
     54.1500	  154.00	  144.11	 -350.27
     54.1750	  148.00	  129.54	 -341.70
     54.2000	  140.00	  117.44	 -337.60
     54.2250	  113.00	  107.52	 -354.68
     54.2500	  104.00	   99.49	 -355.65
     54.2750	  121.00	   93.06	 -332.22
     54.3000	  111.00	   87.98	 -337.14
     54.3250	   87.00	   84.04	 -357.20
     54.3500	   93.00	   81.06	 -348.22
     54.3750	  110.00	   78.90	 -329.06
     54.4000	  101.00	   77.45	 -336.61
     54.4250	   88.00	   76.63	 -348.79
     54.4500	   78.00	   76.40	 -358.56
     54.4750	   99.00	   76.75	 -337.91
     54.5000	   82.00	   77.70	 -355.86
     54.5250	   98.00	   79.30	 -341.47
     54.5500	  101.00	   81.64	 -340.80
     54.5750	   77.00	   84.83	 -367.99
     54.6000	  104.00	   89.04	 -345.20
     54.6250	   84.00	   94.46	 -370.62
     54.6500	  131.00	  101.35	 -330.51
     54.6750	  131.00	  109.97	 -339.13
     54.7000	  150.00	  120.64	 -330.80
     54.7250	  133.00	  133.67	 -360.83
     54.7500	  153.00	  149.36	 -356.52
     54.7750	  177.00	  167.99	 -351.15
     54.8000	  202.00	  189.73	 -347.89
     54.8250	  249.00	  214.63	 -325.79
     54.8500	  312.00	  242.49	 -290.65
     54.8750	  304.00	  272.76	 -328.92
     54.9000	  327.00	  304.32	 -337.48
     54.9250	  338.00	  335.42	 -357.58
     54.9500	  386.00	  363.66	 -337.82
     54.9750	  415.00	  386.39	 -331.55
     55.0000	  477.00	  401.39	 -284.55
     55.0250	  428.00	  407.63	 -339.79
     55.0500	  488.00	  405.51	 -277.67
     55.0750	  409.00	  396.30	 -347.46
     55.1000	  393.00	  381.42	 -348.58
     55.1250	  386.00	  361.89	 -336.05
     55.1500	  410.00	  338.47	 -288.63
     55.1750	  346.00	  311.99	 -326.15
     55.2000	  321.00	  283.63	 -322.79
     55.2250	  266.00	  254.79	 -348.95
     55.2500	  218.00	  226.78	 -368.94
     55.2750	  224.00	  200.63	 -336.80
     55.3000	  183.00	  176.96	 -354.12
     55.3250	  148.00	  156.02	 -368.18
     55.3500	  132.00	  137.83	 -365.99
     55.3750	  125.00	  122.24	 -357.40
     55.4000	  115.00	  109.03	 -354.19
     55.4250	  119.00	   97.92	 -339.08
     55.4500	   81.00	   88.62	 -367.78
     55.4750	   75.00	   80.86	 -366.02
     55.5000	   77.00	   74.39	 -357.55
     55.5250	   73.00	   68.98	 -356.14
     55.5500	   75.00	   64.43	 -349.59
     55.5750	   66.00	   60.58	 -354.74
     55.6000	   65.00	   57.30	 -352.46
     55.6250	   44.00	   54.47	 -370.63
     55.6500	   53.00	   52.01	 -359.17
     55.6750	   45.00	   49.86	 -365.02
     55.7000	   46.00	   47.95	 -362.11
     55.7250	   50.00	   46.24	 -356.40
     55.7500	   45.00	   44.71	 -359.87
     55.7750	   45.00	   43.33	 -358.49
     55.8000	   36.00	   42.07	 -366.23
     55.8250	   40.00	   40.92	 -361.09
     55.8500	   38.00	   39.88	 -362.04
     55.8750	   54.00	   38.92	 -345.08
     55.9000	   34.00	   38.03	 -364.19
     55.9250	   35.00	   37.22	 -362.38
     55.9500	   38.00	   36.46	 -358.62
     55.9750	   26.00	   35.76	 -369.92
     56.0000	   32.00	   35.11	 -363.27
     56.0250	   41.00	   34.50	 -353.67
     56.0500	   35.00	   33.94	 -359.10
     56.0750	   37.00	   33.41	 -356.57
     56.1000	   42.00	   32.92	 -351.08
     56.1250	   36.00	   32.46	 -356.62
     56.1500	   33.00	   32.02	 -359.18
     56.1750	   30.00	   31.61	 -361.77
     56.2000	   32.00	   31.23	 -359.39
     56.2250	   32.00	   30.87	 -359.03
     56.2500	   37.00	   30.52	 -353.68
     56.2750	   35.00	   30.20	 -355.36
     56.3000	   34.00	   29.89	 -356.05
     56.3250	   35.00	   29.60	 -354.76
     56.3500	   23.00	   29.32	 -366.48
     56.3750	   28.00	   29.06	 -361.22
     56.4000	   31.00	   28.81	 -357.97
     56.4250	   27.00	   28.57	 -361.73
     56.4500	   32.00	   28.35	 -356.51
     56.4750	   32.00	   28.13	 -356.29
     56.5000	   26.00	   27.92	 -362.08
     56.5250	   29.00	   27.73	 -358.89
     56.5500	   28.00	   27.54	 -359.70
     56.5750	   29.00	   27.36	 -358.52
     56.6000	   22.00	   27.18	 -365.34
     56.6250	   33.00	   27.02	 -354.18
     56.6500	   32.00	   26.86	 -355.02
     56.6750	   28.00	   26.70	 -358.86
     56.7000	   30.00	   25.75	 -355.91
     56.7250	   25.00	   25.62	 -360.78
     56.7500	   23.00	   25.50	 -362.66
     56.7750	   30.00	   25.38	 -355.54
     56.8000	   15.00	   25.26	 -370.43
     56.8250	   24.00	   24.75	 -360.91
     56.8500	   23.00	   24.65	 -361.81
     56.8750	   21.00	   24.55	 -363.71
     56.9000	   23.00	   24.46	 -361.62
     56.9250	   19.00	   24.37	 -365.53
     56.9500	   30.00	   24.29	 -354.45
     56.9750	   21.00	   24.20	 -363.36
     57.0000	   29.00	   24.12	 -355.28
     57.0250	   30.00	   24.04	 -354.20
     57.0500	   20.00	   23.97	 -364.13
     57.0750	   27.00	   23.90	 -357.06
     57.1000	   31.00	   23.82	 -352.98
     57.1250	   32.00	   23.76	 -351.92
     57.1500	   26.00	   23.69	 -357.85
     57.1750	   28.00	   23.62	 -355.78
     57.2000	   18.00	   23.56	 -365.72
     57.2250	   19.00	   23.50	 -364.66
     57.2500	   30.00	   23.44	 -353.60
     57.2750	   19.00	   23.38	 -364.54
     57.3000	   20.00	   23.33	 -363.49
     57.3250	   31.00	   23.27	 -352.43
     57.3500	   24.00	   23.22	 -359.38
     57.3750	   25.00	   23.16	 -358.33
     57.4000	   31.00	   23.11	 -352.27
     57.4250	   30.00	   23.06	 -353.22
     57.4500	   16.00	   23.02	 -367.18
     57.4750	   12.00	   22.97	 -371.13
     57.5000	   20.00	   22.92	 -363.08
     57.5250	   21.00	   22.88	 -362.04
     57.5500	   25.00	   22.83	 -357.99
     57.5750	   27.00	   22.79	 -355.95
     57.6000	   24.00	   22.75	 -358.91
     57.6250	   25.00	   22.71	 -357.87
     57.6500	   16.00	   22.67	 -366.83
     57.6750	   30.00	   22.63	 -352.79
     57.7000	   38.00	   22.59	 -344.75
     57.7250	   27.00	   22.55	 -355.71
     57.7500	   17.00	   22.51	 -365.67
     57.7750	   23.00	   22.47	 -359.63
     57.8000	   20.00	   22.44	 -362.60
     57.8250	   18.00	   22.40	 -364.56
     57.8500	   27.00	   22.37	 -355.53
     57.8750	   27.00	   22.33	 -355.49
     57.9000	   18.00	   22.30	 -364.46
     57.9250	   26.00	   21.47	 -355.63
     57.9500	   17.00	   21.45	 -364.62
     57.9750	   24.00	   21.44	 -357.60
     58.0000	   21.00	   21.42	 -360.58
     58.0250	   21.00	   21.40	 -360.56
     58.0500	   22.00	   21.38	 -359.54
     58.0750	   25.00	   20.97	 -356.13
     58.1000	   23.00	   20.96	 -358.12
     58.1250	   17.00	   20.95	 -364.11
     58.1500	   23.00	   20.93	 -358.09
     58.1750	   27.00	   20.92	 -354.08
     58.2000	   26.00	   20.91	 -355.07
     58.2250	   23.00	   20.90	 -358.06
     58.2500	   18.00	   20.89	 -363.05
     58.2750	   23.00	   20.88	 -358.04
     58.3000	   25.00	   20.87	 -356.03
     58.3250	   22.00	   20.86	 -359.02
     58.3500	   20.00	   20.85	 -361.01
     58.3750	   28.00	   20.84	 -353.00
     58.4000	   29.00	   20.83	 -351.99
     58.4250	   26.00	   20.82	 -354.98
     58.4500	   27.00	   20.81	 -353.97
     58.4750	   31.00	   20.79	 -349.96
     58.5000	   23.00	   20.78	 -357.94
     58.5250	   23.00	   20.77	 -357.93
     58.5500	   18.00	   20.76	 -362.92
     58.5750	   25.00	   20.75	 -355.91
     58.6000	   33.00	   20.74	 -347.90
     58.6250	   25.00	   20.73	 -355.89
     58.6500	   19.00	   20.72	 -361.88
     58.6750	   14.00	   20.71	 -366.87
     58.7000	   16.00	   20.70	 -364.86
     58.7250	   16.00	   20.69	 -364.85
     58.7500	   24.00	   20.68	 -356.84
     58.7750	   19.00	   20.67	 -361.83
     58.8000	   14.00	   20.66	 -366.82
     58.8250	   22.00	   20.65	 -358.81
     58.8500	   21.00	   20.78	 -359.95
     58.8750	   26.00	   20.78	 -354.94
     58.9000	   25.00	   20.77	 -355.93
     58.9250	   19.00	   20.76	 -361.92
     58.9500	   24.00	   20.75	 -356.91
     58.9750	   16.00	   20.74	 -364.90
     59.0000	   12.00	   20.81	 -368.97
     59.0250	   31.00	   20.80	 -349.96
     59.0500	   21.00	   20.80	 -359.96
     59.0750	   20.00	   20.79	 -360.95
     59.1000	   17.00	   20.78	 -363.94
     59.1250	   24.00	   20.78	 -356.94
     59.1500	   23.00	   20.77	 -357.93
     59.1750	   18.00	   20.76	 -362.93
     59.2000	   21.00	   20.76	 -359.92
     59.2250	   26.00	   20.75	 -354.91
     59.2500	   17.00	   20.75	 -363.91
     59.2750	   23.00	   20.74	 -357.90
     59.3000	   19.00	   20.74	 -361.90
     59.3250	   28.00	   20.73	 -352.89
     59.3500	   21.00	   20.73	 -359.89
     59.3750	   26.00	   20.72	 -354.88
     59.4000	   27.00	   21.48	 -354.64
     59.4250	   25.00	   21.49	 -356.65
     59.4500	   14.00	   21.50	 -367.66
     59.4750	   24.00	   21.50	 -357.66
     59.5000	   23.00	   21.51	 -358.67
     59.5250	   28.00	   21.52	 -353.68
     59.5500	   32.00	   21.91	 -350.07
     59.5750	   31.00	   21.92	 -351.08
     59.6000	   24.00	   21.94	 -358.10
     59.6250	   26.00	   21.96	 -356.12
     59.6500	   22.00	   21.98	 -360.14
     59.6750	   23.00	   22.00	 -359.16
     59.7000	   21.00	   22.01	 -361.18
     59.7250	   25.00	   22.04	 -357.20
     59.7500	   21.00	   22.06	 -361.22
     59.7750	   21.00	   22.08	 -361.24
     59.8000	   14.00	   22.10	 -368.26
     59.8250	   32.00	   22.13	 -350.29
     59.8500	   24.00	   22.15	 -358.31
     59.8750	   15.00	   22.18	 -367.34
     59.9000	   27.00	   22.21	 -355.37
     59.9250	   23.00	   22.23	 -359.40
     59.9500	   22.00	   22.26	 -360.43
     59.9750	   19.00	   22.30	 -363.46
     60.0000	   23.00	   22.33	 -359.49
     60.0250	   25.00	   22.36	 -357.52
     60.0500	   27.00	   22.40	 -355.56
     60.0750	   29.00	   22.43	 -353.59
     60.1000	   26.00	   22.47	 -356.63
     60.1250	   18.00	   22.51	 -364.67
     60.1500	   22.00	   22.55	 -360.71
     60.1750	   15.00	   22.59	 -367.75
     60.2000	   27.00	   22.64	 -355.80
     60.2250	   23.00	   22.68	 -359.84
     60.2500	   24.00	   22.73	 -358.89
     60.2750	   20.00	   22.78	 -362.94
     60.3000	   21.00	   22.83	 -362.00
     60.3250	   24.00	   22.89	 -359.05
     60.3500	   17.00	   22.95	 -366.11
     60.3750	   29.00	   23.01	 -354.17
     60.4000	   18.00	   23.07	 -365.23
     60.4250	   18.00	   23.13	 -365.29
     60.4500	   17.00	   23.20	 -366.36
     60.4750	   26.00	   23.27	 -357.43
     60.5000	   28.00	   23.34	 -355.50
     60.5250	   27.00	   23.42	 -356.58
     60.5500	   18.00	   23.50	 -365.66
     60.5750	   26.00	   23.58	 -357.75
     60.6000	   17.00	   23.67	 -366.83
     60.6250	   17.00	   23.76	 -366.93
     60.6500	   24.00	   23.86	 -360.02
     60.6750	   24.00	   23.96	 -360.12
     60.7000	   21.00	   24.07	 -363.23
     60.7250	   17.00	   24.18	 -367.34
     60.7500	   28.00	   24.29	 -356.45
     60.7750	   24.00	   24.42	 -360.58
     60.8000	   24.00	   24.54	 -360.71
     60.8250	   22.00	   24.68	 -362.84
     60.8500	   20.00	   24.82	 -364.98
     60.8750	   22.00	   24.97	 -363.13
     60.9000	   22.00	   25.13	 -363.29
     60.9250	   21.00	   25.29	 -364.45
     60.9500	   22.00	   25.47	 -363.63
     60.9750	   24.00	   25.65	 -361.81
     61.0000	   19.00	   25.85	 -367.01
     61.0250	   22.00	   26.05	 -364.21
     61.0500	   20.00	   26.27	 -366.43
     61.0750	   33.00	   26.50	 -353.67
     61.1000	   21.00	   26.75	 -365.91
     61.1250	   32.00	   27.01	 -355.17
     61.1500	   26.00	   27.29	 -361.45
     61.1750	   27.00	   27.59	 -360.75
     61.2000	   29.00	   27.90	 -359.06
     61.2250	   41.00	   28.24	 -347.40
     61.2500	   28.00	   28.60	 -360.76
     61.2750	   21.00	   28.99	 -368.15
     61.3000	   27.00	   29.41	 -362.57
     61.3250	   35.00	   29.85	 -355.01
     61.3500	   31.00	   30.34	 -359.50
     61.3750	   20.00	   30.86	 -371.02
     61.4000	   29.00	   31.43	 -362.59
     61.4250	   35.00	   32.05	 -357.21
     61.4500	   23.00	   32.74	 -369.90
     61.4750	   35.00	   33.49	 -358.65
     61.5000	   26.00	   34.32	 -368.48
     61.5250	   36.00	   35.26	 -359.42
     61.5500	   34.00	   36.31	 -362.47
     61.5750	   41.00	   37.50	 -356.66
     61.6000	   37.00	   38.87	 -362.03
     61.6250	   40.00	   40.44	 -360.60
     61.6500	   39.00	   42.25	 -363.41
     61.6750	   51.00	   44.35	 -353.51
     61.7000	   38.00	   46.79	 -368.95
     61.7250	   42.00	   49.62	 -367.78
     61.7500	   45.00	   52.89	 -368.05
     61.7750	   54.00	   56.64	 -362.80
     61.8000	   63.00	   60.93	 -358.09
     61.8250	   62.00	   65.78	 -363.94
     61.8500	   64.00	   71.20	 -367.36
     61.8750	   65.00	   77.17	 -372.33
     61.9000	  102.00	   83.61	 -341.78
     61.9250	   89.00	   90.39	 -361.55
     61.9500	  108.00	   97.27	 -349.43
     61.9750	  102.00	  103.94	 -362.11
     62.0000	  113.00	  110.06	 -357.22
     62.0250	  125.00	  115.28	 -350.44
     62.0500	  109.00	  119.43	 -370.60
     62.0750	  130.00	  122.55	 -352.71
     62.1000	  149.00	  124.84	 -336.00
     62.1250	  113.00	  126.62	 -373.78
     62.1500	  109.00	  128.22	 -379.38
     62.1750	  145.00	  129.92	 -345.08
     62.2000	  136.00	  131.95	 -356.11
     62.2250	  130.00	  134.59	 -364.75
     62.2500	  138.00	  138.17	 -360.33
     62.2750	  134.00	  143.09	 -369.25
     62.3000	  152.00	  149.79	 -357.95
     62.3250	  149.00	  158.67	 -369.83
     62.3500	  145.00	  170.06	 -385.22
     62.3750	  168.00	  184.22	 -376.38
     62.4000	  171.00	  201.27	 -390.43
     62.4250	  216.00	  221.17	 -365.33
     62.4500	  217.00	  243.69	 -386.86
     62.4750	  271.00	  268.31	 -357.47
     62.5000	  254.00	  294.13	 -400.29
     62.5250	  290.00	  319.78	 -389.94
     62.5500	  306.00	  343.48	 -397.64
     62.5750	  341.00	  363.28	 -382.44
     62.6000	  366.00	  377.42	 -371.58
     62.6250	  383.00	  384.91	 -362.07
     62.6500	  321.00	  385.72	 -424.88
     62.6750	  333.00	  380.64	 -407.80
     62.7000	  309.00	  370.82	 -421.98
     62.7250	  318.00	  357.22	 -399.39
     62.7500	  308.00	  340.48	 -392.64
     62.7750	  311.00	  320.96	 -370.12
     62.8000	  281.00	  299.04	 -378.20
     62.8250	  233.00	  275.37	 -402.53
     62.8500	  215.00	  250.84	 -396.00
     62.8750	  242.00	  226.41	 -344.57
     62.9000	  205.00	  202.94	 -358.10
     62.9250	  162.00	  181.06	 -379.22
     62.9500	  158.00	  161.16	 -363.32
     62.9750	  104.00	  143.38	 -399.55
     63.0000	  115.00	  127.74	 -372.90
     63.0250	  107.00	  114.13	 -367.29
     63.0500	   89.00	  102.40	 -373.56
     63.0750	   74.00	   92.35	 -378.51
     63.1000	   79.00	   83.80	 -364.96
     63.1250	   71.00	   76.53	 -365.69
     63.1500	   83.00	   70.36	 -347.52
     63.1750	   67.00	   65.13	 -358.30
     63.2000	   54.00	   60.69	 -366.85
     63.2250	   55.00	   56.89	 -362.05
     63.2500	   49.00	   53.62	 -364.78
     63.2750	   53.00	   50.80	 -357.96
     63.3000	   56.00	   48.34	 -352.50
     63.3250	   50.00	   46.18	 -356.34
     63.3500	   46.00	   44.26	 -358.42
     63.3750	   56.00	   42.56	 -346.72
     63.4000	   40.00	   41.02	 -361.18
     63.4250	   40.00	   39.64	 -359.80
     63.4500	   51.00	   38.38	 -347.54
     63.4750	   47.00	   37.24	 -350.40
     63.5000	   30.00	   36.19	 -366.35
     63.5250	   36.00	   35.23	 -359.39
     63.5500	   30.00	   34.34	 -364.50
     63.5750	   30.00	   33.52	 -363.68
     63.6000	   26.00	   32.76	 -366.93
     63.6250	   27.00	   32.06	 -365.22
     63.6500	   39.00	   31.41	 -352.57
     63.6750	   32.00	   30.80	 -358.96
     63.7000	   30.00	   30.23	 -360.39
     63.7250	   33.00	   29.70	 -356.86
     63.7500	   22.00	   29.21	 -367.37
     63.7750	   26.00	   28.74	 -362.90
     63.8000	   43.00	   28.31	 -345.47
     63.8250	   28.00	   27.90	 -360.06
     63.8500	   27.00	   27.51	 -360.67
     63.8750	   28.00	   27.14	 -359.31
     63.9000	   33.00	   26.80	 -353.96
     63.9250	   34.00	   26.48	 -352.64
     63.9500	   26.00	   26.17	 -360.33
     63.9750	   18.00	   25.88	 -368.04
     64.0000	   28.00	   25.60	 -357.76
     64.0250	   33.00	   25.34	 -352.50
     64.0500	   28.00	   25.09	 -357.25
     64.0750	   24.00	   24.85	 -361.01
     64.1000	   23.00	   24.63	 -361.79
     64.1250	   31.00	   24.41	 -353.57
     64.1500	   25.00	   24.21	 -359.37
     64.1750	   26.00	   24.01	 -358.17
     64.2000	   25.00	   23.83	 -358.99
     64.2250	   31.00	   23.65	 -352.81
     64.2500	   24.00	   23.48	 -359.64
     64.2750	   26.00	   23.31	 -357.47
     64.3000	   23.00	   23.15	 -360.31
     64.3250	   22.00	   23.00	 -361.16
     64.3500	   26.00	   22.86	 -357.02
     64.3750	   22.00	   22.72	 -360.88
     64.4000	   16.00	   22.59	 -366.75
     64.4250	   14.00	   22.46	 -368.62
     64.4500	   30.00	   22.33	 -352.49
     64.4750	   22.00	   22.21	 -360.37
     64.5000	   21.00	   22.10	 -361.26
     64.5250	   22.00	   21.99	 -360.15
     64.5500	   24.00	   21.88	 -358.04
     64.5750	   27.00	   21.78	 -354.94
     64.6000	   26.00	   21.68	 -355.84
     64.6250	   28.00	   21.58	 -353.74
     64.6500	   23.00	   21.49	 -358.65
     64.6750	   21.00	   21.40	 -360.56
     64.7000	   24.00	   21.31	 -357.47
     64.7250	   24.00	   21.22	 -357.38
     64.7500	   19.00	   21.14	 -362.30
     64.7750	   21.00	   21.06	 -360.22
     64.8000	   29.00	   20.98	 -352.14
     64.8250	   22.00	   20.91	 -359.07
     64.8500	   31.00	   20.83	 -349.99
     64.8750	   29.00	   20.76	 -351.92
     64.9000	   18.00	   20.69	 -362.85
     64.9250	   27.00	   20.63	 -353.79
     64.9500	   10.00	   20.56	 -370.72
     64.9750	   32.00	   20.50	 -348.66
     65.0000	   28.00	   20.43	 -352.60
     65.0250	   16.00	   20.37	 -364.53
     65.0500	   21.00	   20.32	 -359.48
     65.0750	   26.00	   20.26	 -354.42
     65.1000	   34.00	   20.20	 -346.36
     65.1250	   17.00	   20.15	 -363.31
     65.1500	   26.00	   20.09	 -354.25
     65.1750	   23.00	   20.36	 -357.52
     65.2000	   24.00	   20.32	 -356.48
     65.2250	   19.00	   20.12	 -361.28
     65.2500	   12.00	   20.08	 -368.24
     65.2750	   23.00	   20.04	 -357.20
     65.3000	   26.00	   20.00	 -354.16
     65.3250	   18.00	   19.96	 -362.12
     65.3500	   29.00	   20.08	 -351.24
     65.3750	   18.00	   20.05	 -362.21
     65.4000	   17.00	   19.94	 -363.10
     65.4250	   36.00	   19.91	 -344.07
     65.4500	   20.00	   19.88	 -360.04
     65.4750	   16.00	   19.85	 -364.01
     65.5000	   20.00	   19.82	 -359.98
     65.5250	   22.00	   19.80	 -357.96
     65.5500	   28.00	   19.77	 -351.93
     65.5750	   22.00	   19.74	 -357.90
     65.6000	   25.00	   19.72	 -354.88
     65.6250	   23.00	   19.70	 -356.86
     65.6500	   22.00	   19.67	 -357.83
     65.6750	   18.00	   19.65	 -361.81
     65.7000	   26.00	   19.63	 -353.79
     65.7250	   17.00	   19.61	 -362.77
     65.7500	   32.00	   19.59	 -347.75
     65.7750	   24.00	   19.57	 -355.73
     65.8000	   13.00	   19.55	 -366.71
     65.8250	   19.00	   18.77	 -359.93
     65.8500	   21.00	   18.77	 -357.93
     65.8750	   31.00	   18.76	 -347.92
     65.9000	   19.00	   18.76	 -359.92
     65.9250	   19.00	   18.76	 -359.92
     65.9500	   31.00	   18.75	 -347.91
     65.9750	   17.00	   18.75	 -361.91
     66.0000	   24.00	   18.37	 -354.53
     66.0250	   14.00	   18.37	 -364.53
     66.0500	   12.00	   18.38	 -366.54
     66.0750	   25.00	   18.38	 -353.54
     66.1000	   25.00	   18.39	 -353.55
     66.1250	   19.00	   18.39	 -359.55
     66.1500	   21.00	   18.40	 -357.56
     66.1750	   19.00	   18.41	 -359.57
     66.2000	   13.00	   18.41	 -365.57
     66.2250	   21.00	   18.42	 -357.58
     66.2500	   19.00	   18.44	 -359.60
     66.2750	   20.00	   18.46	 -358.62
     66.3000	   21.00	   18.48	 -357.64
     66.3250	   22.00	   18.50	 -356.66
     66.3500	   18.00	   18.52	 -360.68
     66.3750	   16.00	   18.54	 -362.70
     66.4000	   26.00	   18.57	 -352.73
     66.4250	   24.00	   18.59	 -354.75
     66.4500	   30.00	   18.61	 -348.77
     66.4750	   29.00	   18.64	 -349.80
     66.5000	   24.00	   18.67	 -354.83
     66.5250	   25.00	   18.69	 -353.85
     66.5500	   19.00	   18.72	 -359.88
     66.5750	   21.00	   18.75	 -357.91
     66.6000	   23.00	   18.78	 -355.94
     66.6250	   18.00	   18.81	 -360.97
     66.6500	   12.00	   18.84	 -367.00
     66.6750	   16.00	   19.30	 -363.46
     66.7000	   20.00	   19.34	 -359.50
     66.7250	   18.00	   19.38	 -361.54
     66.7500	   17.00	   19.42	 -362.59
     66.7750	   22.00	   19.47	 -357.63
     66.8000	   23.00	   19.52	 -356.68
     66.8250	   25.00	   19.56	 -354.73
     66.8500	   22.00	   19.82	 -357.98
     66.8750	   18.00	   19.88	 -362.04
     66.9000	   31.00	   19.94	 -349.10
     66.9250	   22.00	   19.99	 -358.16
     66.9500	   28.00	   20.06	 -352.22
     66.9750	   15.00	   20.12	 -365.28
     67.0000	   16.00	   20.19	 -364.35
     67.0250	   20.00	   20.26	 -360.42
     67.0500	   20.00	   20.33	 -360.49
     67.0750	   18.00	   20.40	 -362.56
     67.1000	   22.00	   20.48	 -358.64
     67.1250	   29.00	   20.56	 -351.72
     67.1500	   19.00	   20.65	 -361.81
     67.1750	   29.00	   20.74	 -351.90
     67.2000	   19.00	   20.83	 -361.99
     67.2250	   37.00	   20.93	 -344.09
     67.2500	   24.00	   21.03	 -357.19
     67.2750	   20.00	   21.14	 -361.30
     67.3000	   20.00	   21.25	 -361.41
     67.3250	   29.00	   21.37	 -352.53
     67.3500	   18.00	   21.49	 -363.65
     67.3750	   24.00	   21.62	 -357.78
     67.4000	   20.00	   21.75	 -361.92
     67.4250	   24.00	   21.90	 -358.06
     67.4500	   24.00	   22.05	 -358.21
     67.4750	   21.00	   22.21	 -361.37
     67.5000	   22.00	   22.38	 -360.54
     67.5250	   22.00	   22.56	 -360.72
     67.5500	   22.00	   22.75	 -360.91
     67.5750	   23.00	   22.95	 -360.11
     67.6000	   22.00	   23.16	 -361.32
     67.6250	   24.00	   23.39	 -359.55
     67.6500	   20.00	   23.63	 -363.79
     67.6750	   24.00	   23.89	 -360.05
     67.7000	   23.00	   24.16	 -361.32
     67.7250	   21.00	   24.46	 -363.62
     67.7500	   28.00	   24.77	 -356.93
     67.7750	   20.00	   25.11	 -365.27
     67.8000	   25.00	   25.48	 -360.64
     67.8250	   22.00	   25.87	 -364.03
     67.8500	   28.00	   26.29	 -358.45
     67.8750	   26.00	   26.75	 -360.91
     67.9000	   28.00	   27.25	 -359.41
     67.9250	   43.00	   27.80	 -344.96
     67.9500	   20.00	   28.39	 -368.55
     67.9750	   32.00	   29.05	 -357.21
     68.0000	   22.00	   29.77	 -367.93
     68.0250	   33.00	   30.57	 -357.73
     68.0500	   23.00	   31.47	 -368.63
     68.0750	   33.00	   32.49	 -359.65
     68.1000	   39.00	   33.64	 -354.80
     68.1250	   36.00	   34.97	 -359.13
     68.1500	   28.00	   36.49	 -368.65
     68.1750	   41.00	   38.26	 -357.42
     68.2000	   45.00	   40.32	 -355.48
     68.2250	   47.00	   42.73	 -355.90
     68.2500	   43.00	   45.56	 -362.72
     68.2750	   42.00	   48.88	 -367.04
     68.3000	   62.00	   52.76	 -350.92
     68.3250	   49.00	   57.27	 -368.43
     68.3500	   59.00	   62.50	 -363.66
     68.3750	   55.00	   68.51	 -373.67
     68.4000	   64.00	   75.36	 -371.53
     68.4250	   57.00	   83.10	 -386.26
     68.4500	   81.00	   91.70	 -370.86
     68.4750	  112.00	  101.15	 -349.31
     68.5000	  103.00	  111.32	 -368.48
     68.5250	  113.00	  122.00	 -369.16
     68.5500	  134.00	  132.84	 -359.00
     68.5750	  126.00	  143.37	 -377.53
     68.6000	  146.00	  152.98	 -367.14
     68.6250	  156.00	  161.04	 -365.20
     68.6500	  150.00	  166.99	 -377.15
     68.6750	  156.00	  170.52	 -374.68
     68.7000	  160.00	  171.61	 -371.77
     68.7250	  146.00	  170.51	 -384.68
     68.7500	  137.00	  167.63	 -390.79
     68.7750	  160.00	  163.34	 -363.50
     68.8000	  147.00	  157.90	 -371.06
     68.8250	  132.00	  151.47	 -379.63
     68.8500	  154.00	  144.11	 -350.27
     68.8750	  142.00	  135.95	 -354.11
     68.9000	  111.00	  127.17	 -376.33
     68.9250	  119.00	  118.07	 -359.23
     68.9500	  112.00	  108.95	 -357.11
     68.9750	  105.00	  100.10	 -355.27
     69.0000	   77.00	   91.77	 -374.93
     69.0250	   96.00	   84.08	 -348.24
     69.0500	   76.00	   77.14	 -361.30
     69.0750	   66.00	   70.96	 -365.12
     69.1000	   59.00	   65.53	 -366.69
     69.1250	   46.00	   60.81	 -374.97
     69.1500	   49.00	   56.74	 -367.90
     69.1750	   62.00	   53.27	 -351.43
     69.2000	   52.00	   50.34	 -358.50
     69.2250	   62.00	   47.88	 -346.04
     69.2500	   49.00	   45.83	 -356.99
     69.2750	   43.00	   44.14	 -361.30
     69.3000	   40.00	   42.77	 -362.93
     69.3250	   51.00	   41.67	 -350.83
     69.3500	   33.00	   40.79	 -367.96
     69.3750	   23.00	   40.13	 -377.29
     69.4000	   37.00	   39.64	 -362.80
     69.4250	   35.00	   39.32	 -364.48
     69.4500	   33.00	   39.14	 -366.30
     69.4750	   33.00	   39.10	 -366.27
     69.5000	   35.00	   39.20	 -364.36
     69.5250	   36.00	   39.43	 -363.59
     69.5500	   34.00	   39.79	 -365.96
     69.5750	   37.00	   40.30	 -363.46
     69.6000	   36.00	   40.97	 -365.13
     69.6250	   38.00	   41.81	 -363.97
     69.6500	   44.00	   42.85	 -359.01
     69.6750	   39.00	   44.12	 -365.28
     69.7000	   47.00	   45.65	 -358.81
     69.7250	   51.00	   47.50	 -356.67
     69.7500	   49.00	   49.73	 -360.89
     69.7750	   37.00	   52.39	 -375.55
     69.8000	   54.00	   55.57	 -361.73
     69.8250	   58.00	   59.34	 -361.50
     69.8500	   45.00	   63.79	 -378.95
     69.8750	   51.00	   69.03	 -378.19
     69.9000	   64.00	   75.13	 -371.29
     69.9250	   71.00	   82.19	 -371.35
     69.9500	   70.00	   90.29	 -380.45
     69.9750	   77.00	   99.47	 -382.63
     70.0000	   76.00	   17.45	 -360.16