# Test of "IRtrans" script command.
#
# Enter "IRtrans" in the Script window and execute (Ctrl+E).
#
# Ethanol IR spectrum
#
#plot W,A
#labX Wavenumber (/cm)
#labY1 Absorbance
#
#W	A
461.563	0.0150229
462.5	0.0150229
463.438	0.0150229
464.375	0.0150229
465.313	0.0150229
466.251	0.0141246
467.188	0.0141246
468.126	0.0141246
469.063	0.0141246
470.001	0.0141246
470.938	0.0141246
471.876	0.0136762
472.813	0.0136762
473.751	0.0136762
474.688	0.0136762
475.626	0.0136762
476.563	0.0136762
477.501	0.0136762
478.438	0.0132283
479.376	0.0132283
480.313	0.0132283
481.251	0.0132283
482.188	0.0132283
483.126	0.0132283
484.063	0.0132283
485.001	0.0123337
485.938	0.0123337
486.876	0.0123337
487.813	0.0123337
488.751	0.0123337
489.688	0.0123337
490.626	0.0123337
491.563	0.0123337
492.501	0.0123337
493.438	0.0123337
494.376	0.0123337
495.313	0.0123337
496.251	0.0123337
497.188	0.0123337
498.126	0.0123337
499.063	0.0123337
500.001	0.0132283
500.938	0.0132283
501.876	0.0132283
502.813	0.0132283
503.751	0.0132283
504.688	0.0132283
505.626	0.0132283
506.563	0.0132283
507.501	0.0132283
508.438	0.0132283
509.376	0.0132283
510.313	0.0132283
511.251	0.0132283
512.188	0.0132283
513.126	0.0132283
514.063	0.0132283
515.001	0.0136762
515.938	0.0136762
516.876	0.0136762
517.813	0.0136762
518.751	0.0136762
519.688	0.0136762
520.626	0.0136762
521.563	0.0136762
522.501	0.0136762
523.438	0.0136762
524.376	0.0136762
525.313	0.0136762
526.251	0.0136762
527.188	0.0136762
528.126	0.0136762
529.063	0.0136762
530.001	0.0136762
530.938	0.0136762
531.876	0.0136762
532.813	0.0136762
533.751	0.0136762
534.688	0.0136762
535.626	0.0136762
536.563	0.0132283
537.501	0.0132283
538.438	0.0132283
539.376	0.0132283
540.313	0.0132283
541.251	0.0132283
542.188	0.0132283
543.126	0.0132283
544.063	0.0132283
545.001	0.0132283
545.938	0.0132283
546.876	0.0132283
547.813	0.0132283
548.751	0.0132283
549.688	0.0132283
550.626	0.0132283
551.563	0.0123337
552.501	0.0123337
553.438	0.0118872
554.376	0.0118872
555.313	0.0118872
556.251	0.0118872
557.188	0.0109954
558.126	0.0109954
559.063	0.0105502
560.001	0.0105502
560.938	0.00966115
561.876	0.00966115
562.813	0.00921731
563.751	0.00921731
564.688	0.00833099
565.626	0.00833099
566.563	0.00833099
567.501	0.00833099
568.438	0.00788851
569.376	0.00788851
570.313	0.00788851
571.251	0.00788851
572.188	0.00656377
573.126	0.00656377
574.063	0.00656377
575.001	0.00656377
575.938	0.00612309
576.876	0.00612309
577.813	0.00612309
578.751	0.00524306
579.688	0.00524306
580.626	0.00524306
581.563	0.00524306
582.501	0.00480371
583.438	0.00480371
584.376	0.00480371
585.313	0.00524306
586.251	0.00480371
587.188	0.00480371
588.126	0.00392635
589.063	0.00392635
590.001	0.00392635
590.938	0.00348833
591.876	0.00348833
592.813	0.00348833
593.751	0.00348833
594.688	0.00348833
595.626	0.00348833
596.563	0.00261362
597.501	0.00261362
598.438	0.00261362
599.376	0.00261362
600.313	0.00261362
601.251	0.00261362
602.188	0.00261362
603.126	0.00217692
604.063	0.00217692
605.001	0.00217692
605.938	0.00217692
606.876	0.00217692
607.813	0.00217692
608.751	0.00217692
609.688	0.00217692
610.626	0.00130484
611.563	0.00130484
612.501	0.00130484
613.438	0.00130484
614.376	0.00130484
615.313	0.000869459
616.251	0.000869459
617.188	0.000869459
618.126	0.000869459
619.063	-0
620.001	-0
620.938	-0
621.876	-0
622.813	-0
623.751	-0.000434077
624.688	-0.000434077
625.626	-0.000434077
626.563	-0.000434077
627.501	-0.000434077
628.438	-0.000434077
629.376	-0.000867722
630.313	-0.000867722
631.251	-0.000867722
632.188	-0.000867722
633.126	-0.000867722
634.063	-0.00173371
635.001	-0.00173371
635.938	-0.00173371
636.876	-0.00173371
637.813	-0.00173371
638.751	-0.00216606
639.688	-0.00216606
640.626	-0.00216606
641.563	-0.00216606
642.501	-0.00216606
643.438	-0.00216606
644.376	-0.00302947
645.313	-0.00302947
646.251	-0.00302947
647.188	-0.00302947
648.126	-0.00302947
649.063	-0.00302947
650.001	-0.00346053
650.938	-0.00346053
651.876	-0.00346053
652.813	-0.00346053
653.751	-0.00346053
654.688	-0.00346053
655.626	-0.00302947
656.563	-0.00302947
657.501	-0.00302947
658.438	-0.00302947
659.376	-0.00302947
660.313	-0.00216606
661.251	-0.00302947
662.188	-0.00302947
663.126	-0.00302947
664.063	-0.00346053
665.001	-0.00346053
665.938	-0.00346053
666.876	-0.00346053
667.813	-0.00432137
668.751	-0.00475116
669.688	-0.00560945
670.626	-0.00560945
671.563	-0.00432137
672.501	-0.00302947
673.438	-0.00173371
674.376	-0.000434077
675.313	-0
676.251	0.000869459
677.188	0.00217692
678.126	0.00217692
679.063	-0.000434077
680.001	-0.000867722
680.938	-0.00173371
681.876	-0.00216606
682.813	-0.00302947
683.751	-0.00346053
684.688	-0.00346053
685.626	-0.00346053
686.563	-0.00346053
687.501	-0.00346053
688.438	-0.00346053
689.376	-0.00346053
690.313	-0.00346053
691.251	-0.00346053
692.188	-0.00346053
693.126	-0.00346053
694.063	-0.00346053
695.001	-0.00346053
695.938	-0.00346053
696.876	-0.00346053
697.813	-0.00432137
698.751	-0.00475116
699.688	-0.00475116
700.626	-0.00475116
701.563	-0.00475116
702.501	-0.00560945
703.438	-0.00560945
704.376	-0.00560945
705.313	-0.00560945
706.251	-0.00560945
707.188	-0.00560945
708.126	-0.00560945
709.063	-0.00560945
710.001	-0.00560945
710.938	-0.00560945
711.876	-0.00560945
712.813	-0.00560945
713.751	-0.00603795
714.688	-0.00603795
715.626	-0.00603795
716.563	-0.00560945
717.501	-0.00560945
718.438	-0.00560945
719.376	-0.00603795
720.313	-0.00603795
721.251	-0.00646604
722.188	-0.00646604
723.126	-0.00732095
724.063	-0.00860017
725.001	-0.00987563
725.938	-0.0103
726.876	-0.00860017
727.813	-0.00603795
728.751	-0.00603795
729.688	-0.00560945
730.626	-0.00560945
731.563	-0.00560945
732.501	-0.00475116
733.438	-0.00475116
734.376	-0.00432137
735.313	-0.00346053
736.251	-0.00346053
737.188	-0.00346053
738.126	-0.00346053
739.063	-0.00346053
740.001	-0.00302947
740.938	-0.00302947
741.876	-0.00302947
742.813	-0.00302947
743.751	-0.00302947
744.688	-0.00302947
745.626	-0.00302947
746.563	-0.00302947
747.501	-0.00302947
748.438	-0.00302947
749.376	-0.00302947
750.313	-0.00346053
751.251	-0.00346053
752.188	-0.00302947
753.126	-0.00302947
754.063	-0.00302947
755.001	-0.00216606
755.938	-0.00216606
756.876	-0.00216606
757.813	-0.00302947
758.751	-0.00302947
759.688	-0.00302947
760.626	-0.00216606
761.563	-0.00216606
762.501	-0.00216606
763.438	-0.00216606
764.376	-0.00216606
765.313	-0.00216606
766.251	-0.00216606
767.188	-0.00216606
768.126	-0.00173371
769.063	-0.00173371
770.001	-0.000867722
770.938	-0.000867722
771.876	-0.000434077
772.813	-0.000434077
773.751	-0
774.688	-0
775.626	-0
776.563	0.000869459
777.501	0.000869459
778.438	0.00130484
779.376	0.00130484
780.313	0.00217692
781.251	0.00261362
782.188	0.00261362
783.126	0.00261362
784.063	0.00348833
785.001	0.00348833
785.938	0.00348833
786.876	0.00392635
787.813	0.00392635
788.751	0.00392635
789.688	0.00480371
790.626	0.00480371
791.563	0.00480371
792.501	0.00524306
793.438	0.00524306
794.376	0.00524306
795.313	0.00612309
796.251	0.00524306
797.188	0.00612309
798.126	0.00612309
799.063	0.00612309
800.001	0.00656377
800.938	0.00656377
801.876	0.00656377
802.813	0.0070049
803.751	0.0070049
804.688	0.0070049
805.626	0.0070049
806.563	0.0070049
807.501	0.0070049
808.438	0.0070049
809.376	0.00656377
810.313	0.00656377
811.251	0.00656377
812.188	0.00656377
813.126	0.00656377
814.063	0.00656377
815.001	0.00656377
815.938	0.00656377
816.876	0.00656377
817.813	0.00656377
818.751	0.00656377
819.688	0.00656377
820.626	0.00612309
821.563	0.00612309
822.501	0.00612309
823.438	0.00612309
824.376	0.00612309
825.313	0.00612309
826.251	0.00612309
827.188	0.00612309
828.126	0.00612309
829.063	0.00612309
830.001	0.00612309
830.938	0.00656377
831.876	0.00656377
832.813	0.00656377
833.751	0.0070049
834.688	0.0070049
835.626	0.0070049
836.563	0.00788851
837.501	0.00788851
838.438	0.00833099
839.376	0.00833099
840.313	0.00833099
841.251	0.00833099
842.188	0.00921731
843.126	0.00966115
844.063	0.00966115
845.001	0.0105502
845.938	0.0109954
846.876	0.0123337
847.813	0.0132283
848.751	0.0150229
849.688	0.0163737
850.626	0.0190881
851.563	0.0213631
852.501	0.0241089
853.438	0.0268721
854.376	0.0296531
855.313	0.032452
856.251	0.0352691
857.188	0.0385789
858.126	0.0433514
859.063	0.0491485
860.001	0.0545314
860.938	0.0604807
861.876	0.0660068
862.813	0.069051
863.751	0.0721166
864.688	0.0772745
865.626	0.0814455
866.563	0.0851282
867.501	0.0899095
868.438	0.0942041
869.376	0.09691
870.313	0.0990869
871.251	0.0996329
872.188	0.0996329
873.126	0.0996329
874.063	0.0985417
875.001	0.0974532
875.938	0.0958256
876.876	0.093665
877.813	0.0909791
878.751	0.0899095
879.688	0.0899095
880.626	0.111147
881.563	0.127785
882.501	0.141403
883.438	0.128427
884.376	0.116339
885.313	0.105684
886.251	0.0990869
887.188	0.0985417
888.126	0.0985417
889.063	0.0990869
890.001	0.101275
890.938	0.131238
891.876	0.133122
892.813	0.131356
893.751	0.116339
894.688	0.115205
895.626	0.114639
896.563	0.114639
897.501	0.113509
898.438	0.112946
899.376	0.109579
900.313	0.106238
901.251	0.104577
902.188	0.102923
903.126	0.101275
904.063	0.0985417
905.001	0.0942041
905.938	0.0925886
906.876	0.0867161
907.813	0.0798767
908.751	0.0701215
909.688	0.0649968
910.626	0.0595333
911.563	0.0540393
912.501	0.048177
913.438	0.0433514
914.376	0.0390538
915.313	0.0362122
916.251	0.034328
917.188	0.0287242
918.126	0.0264104
919.063	0.0241089
920.001	0.02365
920.938	0.0209071
921.876	0.0163737
922.813	0.0154727
923.751	0.0141246
924.688	0.0141246
925.626	0.0132283
926.563	0.0109954
927.501	0.0105502
928.438	0.00966115
929.376	0.00833099
930.313	0.00833099
931.251	0.00788851
932.188	0.0070049
933.126	0.00656377
934.063	0.00656377
935.001	0.00656377
935.938	0.00612309
936.876	0.00612309
937.813	0.00612309
938.751	0.00524306
939.688	0.00524306
940.626	0.00480371
941.563	0.00392635
942.501	0.00392635
943.438	0.00392635
944.376	0.00348833
945.313	0.00348833
946.251	0.00348833
947.188	0.00261362
948.126	0.00261362
949.063	0.00261362
950.001	0.00261362
950.938	0.00261362
951.876	0.00261362
952.813	0.00261362
953.751	0.00261362
954.688	0.00348833
955.626	0.00348833
956.563	0.00348833
957.501	0.00392635
958.438	0.00392635
959.376	0.00392635
960.313	0.00480371
961.251	0.00480371
962.188	0.00524306
963.126	0.00524306
964.063	0.00524306
965.001	0.00612309
965.938	0.00612309
966.876	0.00612309
967.813	0.0070049
968.751	0.00788851
969.688	0.00833099
970.626	0.00921731
971.563	0.00966115
972.501	0.0105502
973.438	0.0109954
974.376	0.0118872
975.313	0.0132283
976.251	0.0150229
977.188	0.0163737
978.126	0.0168249
979.063	0.0177288
980.001	0.0181814
980.938	0.0195421
981.876	0.0213631
982.813	0.025028
983.751	0.0264104
984.688	0.0282604
985.626	0.0301184
986.563	0.032452
987.501	0.034328
988.438	0.0371573
989.376	0.0404816
990.313	0.0433514
991.251	0.0467237
992.188	0.0496351
993.126	0.0540393
994.063	0.0574959
995.001	0.0609802
995.938	0.0655015
996.876	0.0700704
997.813	0.0736576
998.751	0.0783135
999.688	0.0867161
1000.63	0.0952845
1001.56	0.10397
1002.5	0.111764
1003.44	0.120274
1004.38	0.129538
1005.31	0.137869
1006.25	0.14691
1007.19	0.151195
1008.13	0.155523
1009.06	0.165579
1010	0.175874
1010.94	0.186352
1011.88	0.197158
1012.81	0.209644
1013.75	0.223226
1014.69	0.238072
1015.63	0.250264
1016.56	0.259637
1017.5	0.262807
1018.44	0.266001
1019.38	0.270835
1020.31	0.275724
1021.25	0.278189
1022.19	0.280669
1023.13	0.28567
1024.06	0.291579
1025	0.297569
1025.94	0.363412
1026.88	0.388277
1027.81	0.414426
1028.75	0.458296
1029.69	0.356844
1030.63	0.386053
1031.56	0.395774
1032.5	0.405607
1033.44	0.425969
1034.38	0.454693
1035.31	0.478862
1036.25	0.541967
1037.19	0.546682
1038.13	0.562249
1039.06	0.578396
1040	0.590067
1040.94	0.600326
1041.88	0.61261
1042.81	0.647817
1043.75	0.657577
1044.69	0.68403
1045.63	0.69897
1046.56	0.707744
1047.5	0.712198
1048.44	0.718967
1049.38	0.725842
1050.31	0.730487
1051.25	0.735182
1052.19	0.737549
1053.13	0.742321
1054.06	0.74958
1055	0.74958
1055.94	0.752027
1056.88	0.759451
1057.81	0.759451
1058.75	0.782516
1059.69	0.782516
1060.63	0.672233
1061.56	0.686133
1062.5	0.712198
1063.44	0.737549
1064.38	0.767004
1065.31	0.838333
1066.25	0.847712
1067.19	0.838632
1068.13	0.790753
1069.06	0.749824
1070	0.707966
1070.94	0.686133
1071.88	0.69037
1072.81	0.707744
1073.75	0.718967
1074.69	0.725842
1075.63	0.725842
1076.56	0.725842
1077.5	0.721246
1078.44	0.701147
1079.38	0.69037
1080.31	0.659556
1081.25	0.630784
1082.19	0.59346
1083.13	0.590067
1084.06	0.563837
1085	0.552842
1085.94	0.528855
1086.88	0.501827
1087.81	0.488117
1088.75	0.480172
1089.69	0.468521
1090.63	0.443697
1091.56	0.371713
1092.5	0.341035
1093.44	0.322393
1094.38	0.308035
1095.31	0.299296
1096.25	0.29243
1097.19	0.289037
1098.13	0.283162
1099.06	0.276544
1100	0.272459
1100.94	0.267606
1101.88	0.258061
1102.81	0.252588
1103.75	0.247952
1104.69	0.241088
1105.63	0.233587
1106.56	0.226945
1107.5	0.219035
1108.44	0.211832
1109.38	0.20412
1110.31	0.185752
1111.25	0.17134
1112.19	0.169411
1113.13	0.151257
1114.06	0.141523
1115	0.133772
1115.94	0.126156
1116.88	0.119244
1117.81	0.113509
1118.75	0.107349
1119.69	0.100727
1120.63	0.0942041
1121.56	0.0824945
1122.5	0.0757207
1123.44	0.0685421
1124.38	0.0670192
1125.31	0.0639892
1126.25	0.0604807
1127.19	0.0579919
1128.13	0.0560111
1129.06	0.0530567
1130	0.05061
1130.94	0.0467237
1131.88	0.0452752
1132.81	0.0452752
1133.75	0.0419142
1134.69	0.0400052
1135.63	0.0376307
1136.56	0.0362122
1137.5	0.0357404
1138.44	0.0352691
1139.38	0.0338583
1140.31	0.0329203
1141.25	0.032452
1142.19	0.0296531
1143.13	0.0282604
1144.06	0.0268721
1145	0.0268721
1145.94	0.0254883
1146.88	0.0241089
1147.81	0.02365
1148.75	0.0227338
1149.69	0.0222764
1150.63	0.0213631
1151.56	0.0209071
1152.5	0.0204516
1153.44	0.0195421
1154.38	0.0195421
1155.31	0.0190881
1156.25	0.0190881
1157.19	0.0190881
1158.13	0.0181814
1159.06	0.0181814
1160	0.0181814
1160.94	0.0181814
1161.88	0.0181814
1162.81	0.0181814
1163.75	0.0181814
1164.69	0.0190881
1165.63	0.0190881
1166.56	0.0190881
1167.5	0.0195421
1168.44	0.0195421
1169.38	0.0204516
1170.31	0.0209071
1171.25	0.0209071
1172.19	0.0213631
1173.13	0.0213631
1174.06	0.0227338
1175	0.0227338
1175.94	0.02365
1176.88	0.0264104
1177.81	0.0268721
1178.75	0.0287242
1179.69	0.0301184
1180.63	0.0315171
1181.56	0.032452
1182.5	0.0329203
1183.44	0.0338583
1184.38	0.0338583
1185.31	0.034328
1186.25	0.0352691
1187.19	0.0352691
1188.13	0.0362122
1189.06	0.0362122
1190	0.0371573
1190.94	0.0385789
1191.88	0.0400052
1192.81	0.0419142
1193.75	0.0433514
1194.69	0.0438316
1195.63	0.0452752
1196.56	0.0467237
1197.5	0.048177
1198.44	0.0496351
1199.38	0.0510982
1200.31	0.051587
1201.25	0.0525663
1202.19	0.0525663
1203.13	0.0560111
1204.06	0.0579919
1205	0.0594835
1205.94	0.0634863
1206.88	0.0670192
1207.81	0.0700704
1208.75	0.0716041
1209.69	0.0731433
1210.63	0.075204
1211.56	0.0798767
1212.5	0.0851282
1213.44	0.093665
1214.38	0.0985417
1215.31	0.105684
1216.25	0.109579
1217.19	0.117475
1218.13	0.123782
1219.06	0.131885
1220	0.141403
1220.94	0.150581
1221.88	0.153045
1222.81	0.156767
1223.75	0.163043
1224.69	0.167491
1225.63	0.173925
1226.56	0.181115
1227.5	0.183096
1228.44	0.185752
1229.38	0.187755
1230.31	0.188425
1231.25	0.188425
1232.19	0.187755
1233.13	0.183759
1234.06	0.179799
1235	0.177178
1235.94	0.173925
1236.88	0.169411
1237.81	0.166853
1238.75	0.154964
1239.69	0.150581
1240.63	0.148742
1241.56	0.167491
1242.5	0.188425
1243.44	0.212469
1244.38	0.189835
1245.31	0.173342
1246.25	0.172631
1247.19	0.186352
1248.13	0.194431
1249.06	0.207608
1250	0.209715
1250.94	0.207608
1251.88	0.20412
1252.81	0.197226
1253.75	0.196543
1254.69	0.194499
1255.63	0.19382
1256.56	0.189767
1257.5	0.186419
1258.44	0.185752
1259.38	0.181774
1260.31	0.179799
1261.25	0.175224
1262.19	0.167491
1263.13	0.153725
1264.06	0.150581
1265	0.14691
1265.94	0.140862
1266.88	0.134363
1267.81	0.128427
1268.75	0.122053
1269.69	0.116339
1270.63	0.109579
1271.56	0.104025
1272.5	0.0974532
1273.44	0.0925886
1274.38	0.0888424
1275.31	0.0856568
1276.25	0.0819697
1277.19	0.0788339
1278.13	0.0772745
1279.06	0.0705811
1280	0.069051
1280.94	0.0670192
1281.88	0.0649968
1282.81	0.0624821
1283.75	0.0594835
1284.69	0.0579919
1285.63	0.0579919
1286.56	0.0574959
1287.5	0.0560111
1288.44	0.0555173
1289.38	0.0540393
1290.31	0.0530567
1291.25	0.051587
1292.19	0.05061
1293.13	0.0491485
1294.06	0.048177
1295	0.048177
1295.94	0.048177
1296.88	0.047692
1297.81	0.047692
1298.75	0.0467237
1299.69	0.0462403
1300.63	0.0462403
1301.56	0.0462403
1302.5	0.0462403
1303.44	0.0462403
1304.38	0.0462403
1305.31	0.0462403
1306.25	0.0462403
1307.19	0.0462403
1308.13	0.0462403
1309.06	0.0462403
1310	0.0462403
1310.94	0.0462403
1311.88	0.0462403
1312.81	0.0462403
1313.75	0.0462403
1314.69	0.0467237
1315.63	0.0467237
1316.56	0.0467237
1317.5	0.047692
1318.44	0.047692
1319.38	0.047692
1320.31	0.047692
1321.25	0.047692
1322.19	0.048177
1323.13	0.048177
1324.06	0.048177
1325	0.0491485
1325.94	0.0491485
1326.88	0.0491485
1327.81	0.0496351
1328.75	0.0496351
1329.69	0.05061
1330.63	0.05061
1331.56	0.05061
1332.5	0.0510982
1333.44	0.0510982
1334.38	0.0530567
1335.31	0.0540393
1336.25	0.0545314
1337.19	0.0555173
1338.13	0.0560111
1339.06	0.0574959
1340	0.0574959
1340.94	0.0589858
1341.88	0.0604807
1342.81	0.0619809
1343.75	0.0634863
1344.69	0.0649968
1345.63	0.0660068
1346.56	0.0685421
1347.5	0.0700704
1348.44	0.0705811
1349.38	0.0721166
1350.31	0.075204
1351.25	0.0788339
1352.19	0.0840728
1353.13	0.0888424
1354.06	0.0920515
1355	0.0958256
1355.94	0.100727
1356.88	0.108463
1357.81	0.112946
1358.75	0.120274
1359.69	0.126098
1360.63	0.134245
1361.56	0.142668
1362.5	0.150581
1363.44	0.153663
1364.38	0.158641
1365.31	0.165579
1366.25	0.173925
1367.19	0.183759
1368.13	0.194431
1369.06	0.205442
1370	0.218891
1370.94	0.233587
1371.88	0.252588
1372.81	0.260428
1373.75	0.2652
1374.69	0.270026
1375.63	0.279014
1376.56	0.288193
1377.5	0.300076
1378.44	0.302771
1379.38	0.308919
1380.31	0.315155
1381.25	0.320572
1382.19	0.322393
1383.13	0.320572
1384.06	0.316953
1385	0.313364
1385.94	0.308919
1386.88	0.305395
1387.81	0.30103
1388.75	0.294136
1389.69	0.289037
1390.63	0.283997
1391.56	0.279014
1392.5	0.273273
1393.44	0.319574
1394.38	0.346691
1395.31	0.375615
1396.25	0.391367
1397.19	0.406603
1398.13	0.438779
1399.06	0.230623
1400	0.232844
1400.94	0.252588
1401.88	0.259637
1402.81	0.266001
1403.75	0.274905
1404.69	0.280669
1405.63	0.288193
1406.56	0.296709
1407.5	0.299296
1408.44	0.297569
1409.38	0.291579
1410.31	0.283997
1411.25	0.283162
1412.19	0.272459
1413.13	0.253444
1414.06	0.244888
1415	0.233662
1415.94	0.223371
1416.88	0.209785
1417.81	0.194499
1418.75	0.186419
1419.69	0.181774
1420.63	0.172631
1421.56	0.143936
1422.5	0.139063
1423.44	0.127902
1424.38	0.120904
1425.31	0.117475
1426.25	0.112946
1427.19	0.108463
1428.13	0.104025
1429.06	0.100727
1430	0.0974532
1430.94	0.0958256
1431.88	0.0942041
1432.81	0.093665
1433.75	0.0925886
1434.69	0.0920515
1435.63	0.0909791
1436.56	0.090444
1437.5	0.090444
1438.44	0.0899095
1439.38	0.0888424
1440.31	0.0883098
1441.25	0.0883098
1442.19	0.0872467
1443.13	0.0872467
1444.06	0.0867161
1445	0.0867161
1445.94	0.0867161
1446.88	0.0872467
1447.81	0.0872467
1448.75	0.0872467
1449.69	0.0909791
1450.63	0.107293
1451.56	0.107349
1452.5	0.104577
1453.44	0.104577
1454.38	0.104025
1455.31	0.104025
1456.25	0.102923
1457.19	0.090444
1458.13	0.0824945
1459.06	0.0705811
1460	0.0685421
1460.94	0.0670192
1461.88	0.0655015
1462.81	0.0655015
1463.75	0.0649968
1464.69	0.0639892
1465.63	0.0624821
1466.56	0.0609802
1467.5	0.0604807
1468.44	0.0604807
1469.38	0.0604807
1470.31	0.0604807
1471.25	0.0594835
1472.19	0.0594835
1473.13	0.0594835
1474.06	0.0594835
1475	0.0594835
1475.94	0.0594835
1476.88	0.0589858
1477.81	0.0589858
1478.75	0.0579919
1479.69	0.0574959
1480.63	0.0574959
1481.56	0.0560111
1482.5	0.0540393
1483.44	0.05061
1484.38	0.0496351
1485.31	0.048177
1486.25	0.047692
1487.19	0.0467237
1488.13	0.0447935
1489.06	0.0438316
1490	0.0433514
1490.94	0.0428718
1491.88	0.0414361
1492.81	0.0404816
1493.75	0.0390538
1494.69	0.0385789
1495.63	0.0376307
1496.56	0.0362122
1497.5	0.0338583
1498.44	0.032452
1499.38	0.0310503
1500.31	0.0296531
1501.25	0.0296531
1502.19	0.0287242
1503.13	0.0282604
1504.06	0.0277972
1505	0.0268721
1505.94	0.0268721
1506.88	0.0264104
1507.81	0.0254883
1508.75	0.025028
1509.69	0.0222764
1510.63	0.0213631
1511.56	0.0204516
1512.5	0.0195421
1513.44	0.0181814
1514.38	0.0181814
1515.31	0.0177288
1516.25	0.0168249
1517.19	0.0163737
1518.13	0.0154727
1519.06	0.0150229
1520	0.0141246
1520.94	0.0136762
1521.88	0.0132283
1522.81	0.0132283
1523.75	0.0123337
1524.69	0.0118872
1525.63	0.0109954
1526.56	0.0105502
1527.5	0.00966115
1528.44	0.00921731
1529.38	0.00833099
1530.31	0.00788851
1531.25	0.00788851
1532.19	0.00788851
1533.13	0.0070049
1534.06	0.0070049
1535	0.0070049
1535.94	0.00656377
1536.88	0.00656377
1537.81	0.00612309
1538.75	0.00612309
1539.69	0.00612309
1540.63	0.00524306
1541.56	0.00524306
1542.5	0.00524306
1543.44	0.00480371
1544.38	0.00480371
1545.31	0.00480371
1546.25	0.00392635
1547.19	0.00392635
1548.13	0.00348833
1549.06	0.00348833
1550	0.00261362
1550.94	0.00261362
1551.88	0.00261362
1552.81	0.00348833
1553.75	0.00348833
1554.69	0.00392635
1555.63	0.00392635
1556.56	0.00480371
1557.5	0.00480371
1558.44	0.00480371
1559.38	0.00480371
1560.31	0.00392635
1561.25	0.00392635
1562.19	0.00392635
1563.13	0.00348833
1564.06	0.00348833
1565	0.00261362
1565.94	0.00261362
1566.88	0.00261362
1567.81	0.00348833
1568.75	0.00392635
1569.69	0.00392635
1570.63	0.00392635
1571.56	0.00348833
1572.5	0.00348833
1573.44	0.00261362
1574.38	0.00261362
1575.31	0.00261362
1576.25	0.00348833
1577.19	0.00348833
1578.13	0.00480371
1579.06	0.00480371
1580	0.00480371
1580.94	0.00480371
1581.88	0.00392635
1582.81	0.00261362
1583.75	0.00261362
1584.69	0.00348833
1585.63	0.00348833
1586.56	0.00261362
1587.5	0.00217692
1588.44	0.00217692
1589.38	0.00217692
1590.31	0.00217692
1591.25	0.00392635
1592.19	0.00524306
1593.13	0.00524306
1594.06	0.00524306
1595	0.00480371
1595.94	0.00480371
1596.88	0.00392635
1597.81	0.00392635
1598.75	0.00392635
1599.69	0.00392635
1600.63	0.00392635
1601.56	0.00392635
1602.5	0.00392635
1603.44	0.00480371
1604.38	0.00480371
1605.31	0.00480371
1606.25	0.00480371
1607.19	0.00480371
1608.13	0.00480371
1609.06	0.00524306
1610	0.00524306
1610.94	0.00524306
1611.88	0.00392635
1612.81	0.00392635
1613.75	0.00480371
1614.69	0.00524306
1615.63	0.00524306
1616.56	0.00524306
1617.5	0.00524306
1618.44	0.00524306
1619.38	0.00524306
1620.31	0.00612309
1621.25	0.00612309
1622.19	0.00656377
1623.13	0.00612309
1624.06	0.00612309
1625	0.00524306
1625.94	0.00524306
1626.88	0.00524306
1627.81	0.00524306
1628.75	0.00524306
1629.69	0.00524306
1630.63	0.00480371
1631.56	0.00392635
1632.5	0.00392635
1633.44	0.00480371
1634.38	0.00480371
1635.31	0.00524306
1636.25	0.00612309
1637.19	0.00524306
1638.13	0.00524306
1639.06	0.00524306
1640	0.00524306
1640.94	0.00524306
1641.88	0.00524306
1642.81	0.00524306
1643.75	0.00524306
1644.69	0.00524306
1645.63	0.00524306
1646.56	0.00524306
1647.5	0.00524306
1648.44	0.00524306
1649.38	0.00524306
1650.31	0.00612309
1651.25	0.00612309
1652.19	0.00656377
1653.13	0.0070049
1654.06	0.0070049
1655	0.0070049
1655.94	0.0070049
1656.88	0.0070049
1657.81	0.00656377
1658.75	0.00612309
1659.69	0.00612309
1660.63	0.00612309
1661.56	0.00524306
1662.5	0.00524306
1663.44	0.00480371
1664.38	0.00480371
1665.31	0.00480371
1666.25	0.00480371
1667.19	0.00480371
1668.13	0.00480371
1669.06	0.00480371
1670	0.00480371
1670.94	0.00524306
1671.88	0.00524306
1672.81	0.00524306
1673.75	0.00524306
1674.69	0.00524306
1675.63	0.00524306
1676.56	0.00612309
1677.5	0.00612309
1678.44	0.00612309
1679.38	0.00656377
1680.31	0.00656377
1681.25	0.00656377
1682.19	0.0070049
1683.13	0.0070049
1684.06	0.0070049
1685	0.0070049
1685.94	0.00656377
1686.88	0.00656377
1687.81	0.00612309
1688.75	0.00524306
1689.69	0.00524306
1690.63	0.00524306
1691.56	0.00524306
1692.5	0.00524306
1693.44	0.00524306
1694.38	0.00524306
1695.31	0.00612309
1696.25	0.00612309
1697.19	0.00612309
1698.13	0.00612309
1699.06	0.00612309
1700	0.00612309
1700.94	0.00612309
1701.88	0.00612309
1702.81	0.00612309
1703.75	0.00612309
1704.69	0.00612309
1705.63	0.00612309
1706.56	0.00612309
1707.5	0.00612309
1708.44	0.00612309
1709.38	0.00656377
1710.31	0.00656377
1711.25	0.00656377
1712.19	0.00656377
1713.13	0.0070049
1714.06	0.0070049
1715	0.00788851
1715.94	0.00788851
1716.88	0.00788851
1717.81	0.00788851
1718.75	0.00788851
1719.69	0.00788851
1720.63	0.00788851
1721.56	0.0070049
1722.5	0.0070049
1723.44	0.0070049
1724.38	0.0070049
1725.31	0.00656377
1726.25	0.00656377
1727.19	0.00656377
1728.13	0.00656377
1729.06	0.00656377
1730	0.00656377
1730.94	0.00656377
1731.88	0.00656377
1732.81	0.00656377
1733.75	0.00656377
1734.69	0.00656377
1735.63	0.0070049
1736.56	0.0070049
1737.5	0.0070049
1738.44	0.0070049
1739.38	0.0070049
1740.31	0.0070049
1741.25	0.0070049
1742.19	0.0070049
1743.13	0.0070049
1744.06	0.0070049
1745	0.0070049
1745.94	0.0070049
1746.88	0.0070049
1747.81	0.0070049
1748.75	0.0070049
1749.69	0.0070049
1750.63	0.0070049
1751.56	0.0070049
1752.5	0.0070049
1753.44	0.0070049
1754.38	0.0070049
1755.31	0.0070049
1756.25	0.0070049
1757.19	0.0070049
1758.13	0.0070049
1759.06	0.0070049
1760	0.0070049
1760.94	0.0070049
1761.88	0.0070049
1762.81	0.00788851
1763.75	0.00788851
1764.69	0.00788851
1765.63	0.00788851
1766.56	0.00788851
1767.5	0.00788851
1768.44	0.00788851
1769.38	0.00788851
1770.31	0.00788851
1771.25	0.00788851
1772.19	0.0070049
1773.13	0.0070049
1774.06	0.00656377
1775	0.00656377
1775.94	0.00656377
1776.88	0.00656377
1777.81	0.00612309
1778.75	0.00524306
1779.69	0.00524306
1780.63	0.00524306
1781.56	0.00524306
1782.5	0.00524306
1783.44	0.00524306
1784.38	0.00524306
1785.31	0.00524306
1786.25	0.00524306
1787.19	0.00524306
1788.13	0.00524306
1789.06	0.00524306
1790	0.00524306
1790.94	0.00524306
1791.88	0.00524306
1792.81	0.00524306
1793.75	0.00524306
1794.69	0.00524306
1795.63	0.00480371
1796.56	0.00480371
1797.5	0.00480371
1798.44	0.00392635
1799.38	0.00392635
1800.31	0.00348833
1801.25	0.00261362
1802.19	0.00261362
1803.13	0.00261362
1804.06	0.00261362
1805	0.00261362
1805.94	0.00261362
1806.88	0.00261362
1807.81	0.00261362
1808.75	0.00261362
1809.69	0.00261362
1810.63	0.00261362
1811.56	0.00261362
1812.5	0.00261362
1813.44	0.00261362
1814.38	0.00261362
1815.31	0.00261362
1816.25	0.00261362
1817.19	0.00217692
1818.13	0.00217692
1819.06	0.00217692
1820	0.00217692
1820.94	0.00217692
1821.88	0.00217692
1822.81	0.00217692
1823.75	0.00130484
1824.69	0.00130484
1825.63	0.00130484
1826.56	0.00130484
1827.5	0.00130484
1828.44	0.00130484
1829.38	0.00217692
1830.31	0.00217692
1831.25	0.00217692
1832.19	0.00217692
1833.13	0.00217692
1834.06	0.00217692
1835	0.00217692
1835.94	0.00217692
1836.88	0.00217692
1837.81	0.00217692
1838.75	0.00217692
1839.69	0.00217692
1840.63	0.00217692
1841.56	0.00217692
1842.5	0.00217692
1843.44	0.00217692
1844.38	0.00217692
1845.31	0.00217692
1846.25	0.00217692
1847.19	0.00217692
1848.13	0.00217692
1849.06	0.00130484
1850	0.00130484
1850.94	0.00130484
1851.88	0.00130484
1852.81	0.00130484
1853.75	0.00130484
1854.69	0.000869459
1855.63	0.00130484
1856.56	0.00130484
1857.5	0.00130484
1858.44	0.00130484
1859.38	0.00130484
1860.31	0.00130484
1861.25	0.00130484
1862.19	0.00217692
1863.13	0.00217692
1864.06	0.00261362
1865	0.00261362
1865.94	0.00261362
1866.88	0.00261362
1867.81	0.00261362
1868.75	0.00261362
1869.69	0.00348833
1870.63	0.00348833
1871.56	0.00348833
1872.5	0.00348833
1873.44	0.00348833
1874.38	0.00348833
1875.31	0.00348833
1876.25	0.00348833
1877.19	0.00348833
1878.13	0.00392635
1879.06	0.00392635
1880	0.00392635
1880.94	0.00392635
1881.88	0.00392635
1882.81	0.00480371
1883.75	0.00480371
1884.69	0.00480371
1885.63	0.00480371
1886.56	0.00480371
1887.5	0.00480371
1888.44	0.00524306
1889.38	0.00524306
1890.31	0.00524306
1891.25	0.00524306
1892.19	0.00612309
1893.13	0.00612309
1894.06	0.00612309
1895	0.00612309
1895.94	0.00656377
1896.88	0.00656377
1897.81	0.00656377
1898.75	0.0070049
1899.69	0.0070049
1900.63	0.0070049
1901.56	0.00788851
1902.5	0.00788851
1903.44	0.00788851
1904.38	0.00833099
1905.31	0.00833099
1906.25	0.00833099
1907.19	0.00921731
1908.13	0.00921731
1909.06	0.00966115
1910	0.00966115
1910.94	0.00966115
1911.88	0.0105502
1912.81	0.00966115
1913.75	0.0105502
1914.69	0.0105502
1915.63	0.0109954
1916.56	0.0109954
1917.5	0.0118872
1918.44	0.0118872
1919.38	0.0118872
1920.31	0.0123337
1921.25	0.0118872
1922.19	0.0123337
1923.13	0.0123337
1924.06	0.0132283
1925	0.0132283
1925.94	0.0132283
1926.88	0.0132283
1927.81	0.0132283
1928.75	0.0132283
1929.69	0.0132283
1930.63	0.0132283
1931.56	0.0132283
1932.5	0.0136762
1933.44	0.0132283
1934.38	0.0132283
1935.31	0.0132283
1936.25	0.0123337
1937.19	0.0123337
1938.13	0.0118872
1939.06	0.0118872
1940	0.0118872
1940.94	0.0109954
1941.88	0.0109954
1942.81	0.0105502
1943.75	0.0105502
1944.69	0.0105502
1945.63	0.00966115
1946.56	0.00966115
1947.5	0.00921731
1948.44	0.00921731
1949.38	0.00833099
1950.31	0.00833099
1951.25	0.00788851
1952.19	0.00788851
1953.13	0.0070049
1954.06	0.0070049
1955	0.00656377
1955.94	0.00656377
1956.88	0.00612309
1957.81	0.00612309
1958.75	0.00524306
1959.69	0.00524306
1960.63	0.00524306
1961.56	0.00524306
1962.5	0.00480371
1963.44	0.00480371
1964.38	0.00480371
1965.31	0.00480371
1966.25	0.00392635
1967.19	0.00392635
1968.13	0.00392635
1969.06	0.00392635
1970	0.00348833
1970.94	0.00348833
1971.88	0.00348833
1972.81	0.00348833
1973.75	0.00261362
1974.69	0.00261362
1975.63	0.00261362
1976.56	0.00261362
1977.5	0.00217692
1978.44	0.00217692
1979.38	0.00217692
1980.31	0.00217692
1981.25	0.00130484
1982.19	0.00130484
1983.13	0.00130484
1984.06	0.00130484
1985	0.000869459
1985.94	0.000869459
1986.88	0.000869459
1987.81	0.000869459
1988.75	-0
1989.69	-0
1990.63	-0
1991.56	-0
1992.5	-0
1993.44	-0.000434077
1994.38	-0.000434077
1995.31	-0.000434077
1996.25	-0.000434077
1997.19	-0.000434077
1998.13	-0.000434077
1999.06	-0.000434077
2000	-0.000434077
2000.94	-0.000434077
2001.88	-0.000434077
2002.81	-0.000434077
2003.75	-0.000434077
2004.69	-0.000434077
2005.63	-0.000434077
2006.56	-0.000434077
2007.5	-0.000434077
2008.44	-0.000434077
2009.38	-0.000434077
2010.31	-0.000434077
2011.25	-0.000434077
2012.19	-0.000434077
2013.13	-0.000434077
2014.06	-0.000434077
2015	-0.000434077
2015.94	-0.000434077
2016.88	-0.000434077
2017.81	-0.000434077
2018.75	-0.000434077
2019.69	-0.000434077
2020.63	-0.000434077
2021.56	-0.000434077
2022.5	-0.000434077
2023.44	-0.000434077
2024.38	-0.000434077
2025.31	-0.000434077
2026.25	-0.000434077
2027.19	-0.000434077
2028.13	-0.000434077
2029.06	-0.000434077
2030	-0.000434077
2030.94	-0.000434077
2031.88	-0.000434077
2032.81	-0.000434077
2033.75	-0.000434077
2034.69	-0.000434077
2035.63	-0.000434077
2036.56	-0.000434077
2037.5	-0.000434077
2038.44	-0.000434077
2039.38	-0.000434077
2040.31	-0.000434077
2041.25	-0.000434077
2042.19	-0.000434077
2043.13	-0.000434077
2044.06	-0.000434077
2045	-0.000434077
2045.94	-0.000607587
2046.88	-0.000824377
2047.81	-0.000694316
2048.75	-0.000477461
2049.69	-0.000434077
2050.63	-0.000434077
2051.56	-0.000434077
2052.5	-0.000434077
2053.44	-0.000434077
2054.38	-0.000434077
2055.31	-0.000434077
2056.25	-0.000434077
2057.19	-0.000434077
2058.13	-0.000434077
2059.06	-0.000434077
2060	-0.000434077
2060.94	-0.000434077
2061.88	-0.000434077
2062.81	-0.000260499
2063.75	-4.34273e-05
2064.69	-0
2065.63	-0
2066.56	-0
2067.5	-0
2068.44	-0
2069.38	-0
2070.31	-0
2071.25	-0
2072.19	-0
2073.13	-0
2074.06	0.000347575
2075	0.000782434
2075.94	0.000869459
2076.88	0.000869459
2077.81	0.000869459
2078.75	0.000869459
2079.69	0.000869459
2080.63	0.000869459
2081.56	0.00104356
2082.5	0.00126128
2083.44	0.00130484
2084.38	0.00130484
2085.31	0.00130484
2086.25	0.00130484
2087.19	0.00165346
2088.13	0.00208963
2089.06	0.00217692
2090	0.00217692
2090.94	0.00235155
2091.88	0.00256993
2092.81	0.00261362
2093.75	0.00261362
2094.69	0.00261362
2095.63	0.00261362
2096.56	0.00296329
2097.5	0.00340078
2098.44	0.00348833
2099.38	0.00348833
2100.31	0.00366348
2101.25	0.00388252
2102.19	0.00392635
2103.13	0.00392635
2104.06	0.00423322
2105	0.00467199
2105.94	0.00497939
2106.88	0.0051991
2107.81	0.00524306
2108.75	0.00524306
2109.69	0.00524306
2110.63	0.00524306
2111.56	0.00524306
2112.5	0.00524306
2113.44	0.00524306
2114.38	0.00524306
2115.31	0.00524306
2116.25	0.00524306
2117.19	0.00572685
2118.13	0.00638744
2119.06	0.00656377
2120	0.00656377
2120.94	0.00656377
2121.88	0.00656377
2122.81	0.00656377
2123.75	0.00656377
2124.69	0.00669606
2125.63	0.00691664
2126.56	0.0070049
2127.5	0.0070049
2128.44	0.0070049
2129.38	0.0070049
2130.31	0.0070049
2131.25	0.0070049
2132.19	0.0070049
2133.13	0.0070049
2134.06	0.0070049
2135	0.0070049
2135.94	0.0070049
2136.88	0.0070049
2137.81	0.00687251
2138.75	0.00665196
2139.69	0.00643152
2140.63	0.00621119
2141.56	0.00581487
2142.5	0.00541892
2143.44	0.0051112
2144.38	0.00489154
2145.31	0.00480371
2146.25	0.00480371
2147.19	0.00454031
2148.13	0.00410168
2149.06	0.00392635
2150	0.00392635
2150.94	0.00379489
2151.88	0.0035759
2152.81	0.00348833
2153.75	0.00348833
2154.69	0.00348833
2155.63	0.00348833
2156.56	0.00322573
2157.5	0.00278842
2158.44	0.00261362
2159.38	0.00261362
2160.31	0.00261362
2161.25	0.00261362
2162.19	0.00261362
2163.13	0.00261362
2164.06	0.00261362
2165	0.00261362
2165.94	0.00261362
2166.88	0.00261362
2167.81	0.00261362
2168.75	0.00261362
2169.69	0.00261362
2170.63	0.00261362
2171.56	0.00261362
2172.5	0.00261362
2173.44	0.00261362
2174.38	0.00261362
2175.31	0.00261362
2176.25	0.00261362
2177.19	0.00261362
2178.13	0.00261362
2179.06	0.00261362
2180	0.00261362
2180.94	0.00261362
2181.88	0.00261362
2182.81	0.00261362
2183.75	0.00261362
2184.69	0.00261362
2185.63	0.00261362
2186.56	0.00261362
2187.5	0.00261362
2188.44	0.00261362
2189.38	0.00261362
2190.31	0.00261362
2191.25	0.00261362
2192.19	0.00261362
2193.13	0.00261362
2194.06	0.00261362
2195	0.00261362
2195.94	0.00248256
2196.88	0.00226422
2197.81	0.00217692
2198.75	0.00217692
2199.69	0.00217692
2200.63	0.00217692
2201.56	0.00195874
2202.5	0.0015227
2203.44	0.00130484
2204.38	0.00130484
2205.31	0.00121773
2206.25	0.0009565
2207.19	0.000869459
2208.13	0.000869459
2209.06	0.000651931
2210	0.000217202
2210.94	-0
2211.88	-0
2212.81	-0
2213.75	-0
2214.69	-0
2215.63	-0
2216.56	-0
2217.5	-0
2218.44	-0
2219.38	-0
2220.31	-0
2221.25	-0
2222.19	-0
2223.13	-0
2224.06	-0
2225	-0
2225.94	-0
2226.88	-0
2227.81	-0
2228.75	-0
2229.69	-0
2230.63	-0
2231.56	-0
2232.5	-0
2233.44	-0
2234.38	-0
2235.31	-0
2236.25	-0
2237.19	0.000173753
2238.13	0.000608438
2239.06	0.000869459
2240	0.000869459
2240.94	0.000869459
2241.88	0.000869459
2242.81	0.0009565
2243.75	0.00117418
2244.69	0.00130484
2245.63	0.00130484
2246.56	0.00130484
2247.5	0.00130484
2248.44	0.00147912
2249.38	0.00191511
2250.31	0.00217692
2251.25	0.00217692
2252.19	0.00217692
2253.13	0.00217692
2254.06	0.00226422
2255	0.00248256
2255.94	0.00261362
2256.88	0.00261362
2257.81	0.00278842
2258.75	0.00322573
2259.69	0.0035759
2260.63	0.00379489
2261.56	0.00392635
2262.5	0.00392635
2263.44	0.00392635
2264.38	0.00392635
2265.31	0.00392635
2266.25	0.00392635
2267.19	0.00410168
2268.13	0.00454031
2269.06	0.00480371
2270	0.00480371
2270.94	0.00480371
2271.88	0.00480371
2272.81	0.00480371
2273.75	0.00480371
2274.69	0.00480371
2275.63	0.00480371
2276.56	0.00467199
2277.5	0.00423322
2278.44	0.00392635
2279.38	0.00392635
2280.31	0.00383871
2281.25	0.00361969
2282.19	0.00348833
2283.13	0.00348833
2284.06	0.00348833
2285	0.00348833
2285.94	0.00335701
2286.88	0.00291956
2287.81	0.00261362
2288.75	0.00261362
2289.69	0.00252624
2290.63	0.00230788
2291.56	0.00217692
2292.5	0.00217692
2293.44	0.002046
2294.38	0.00160987
2295.31	0.00130484
2296.25	0.00130484
2297.19	0.00126128
2298.13	0.00104356
2299.06	0.000738929
2300	0.000304113
2300.94	-0
2301.88	-0
2302.81	-4.34273e-05
2303.75	-0.000260499
2304.69	-0.000434077
2305.63	-0.000434077
2306.56	-0.000434077
2307.5	-0.000434077
2308.44	-0.000434077
2309.38	-0.000434077
2310.31	-0.000434077
2311.25	-0.000434077
2312.19	-0.000434077
2313.13	-0.000434077
2314.06	-0.000434077
2315	-0.000434077
2315.94	-0.000434077
2316.88	-0.000434077
2317.81	-0.000434077
2318.75	-0.000434077
2319.69	-0.000434077
2320.63	-0.000434077
2321.56	-0.000434077
2322.5	-0.000434077
2323.44	-0.000434077
2324.38	-0.000434077
2325.31	-0.000434077
2326.25	-0.000434077
2327.19	-0.000434077
2328.13	-0.000434077
2329.06	-0.000390689
2330	-0.000173683
2330.94	-0
2331.88	-0
2332.81	-0
2333.75	-0
2334.69	8.68676e-05
2335.63	0.000521466
2336.56	0.000912977
2337.5	0.00113064
2338.44	0.00130484
2339.38	0.00130484
2340.31	0.00143554
2341.25	0.00208963
2342.19	0.00261362
2343.13	0.00261362
2344.06	0.00261362
2345	0.00261362
2345.94	0.00261362
2346.88	0.00261362
2347.81	0.00256993
2348.75	0.00235155
2349.69	0.00217692
2350.63	0.00217692
2351.56	0.00200236
2352.5	0.000912977
2353.44	-0
2354.38	-0
2355.31	-0
2356.25	-0
2357.19	-4.34273e-05
2358.13	-0.000260499
2359.06	-0.000434077
2360	-0.000434077
2360.94	-0.000434077
2361.88	-0.000434077
2362.81	-0.000434077
2363.75	-0.000434077
2364.69	-0.000434077
2365.63	-0.000434077
2366.56	-0.000434077
2367.5	-0.000434077
2368.44	-0.000434077
2369.38	-0.000434077
2370.31	-0.000434077
2371.25	-0.000434077
2372.19	-0.000434077
2373.13	-0.000434077
2374.06	-0.000434077
2375	-0.000217093
2375.94	-0
2376.88	-0
2377.81	-0
2378.75	-0
2379.69	-0
2380.63	-0
2381.56	4.34316e-05
2382.5	0.000477987
2383.44	0.000869459
2384.38	0.000869459
2385.31	0.000869459
2386.25	0.0010871
2387.19	0.00130484
2388.13	0.00130484
2389.06	0.00130484
2390	0.00130484
2390.94	0.00130484
2391.88	0.00130484
2392.81	0.00130484
2393.75	0.00130484
2394.69	0.00130484
2395.63	0.00130484
2396.56	0.00130484
2397.5	0.00130484
2398.44	0.00130484
2399.38	0.00130484
2400.31	0.00130484
2401.25	0.00130484
2402.19	0.00130484
2403.13	0.00174066
2404.06	0.00217692
2405	0.00217692
2405.94	0.00217692
2406.88	0.00217692
2407.81	0.00217692
2408.75	0.00217692
2409.69	0.00217692
2410.63	0.00239521
2411.56	0.00261362
2412.5	0.00261362
2413.44	0.00261362
2414.38	0.00305075
2415.31	0.00348833
2416.25	0.00348833
2417.19	0.00348833
2418.13	0.00348833
2419.06	0.00348833
2420	0.00348833
2420.94	0.00348833
2421.88	0.00348833
2422.81	0.00348833
2423.75	0.00348833
2424.69	0.00348833
2425.63	0.00348833
2426.56	0.00348833
2427.5	0.00348833
2428.44	0.00348833
2429.38	0.00305075
2430.31	0.00261362
2431.25	0.00261362
2432.19	0.00261362
2433.13	0.00261362
2434.06	0.00261362
2435	0.00261362
2435.94	0.00261362
2436.88	0.00261362
2437.81	0.00261362
2438.75	0.00261362
2439.69	0.00261362
2440.63	0.00261362
2441.56	0.00261362
2442.5	0.00239521
2443.44	0.00217692
2444.38	0.00217692
2445.31	0.00217692
2446.25	0.00217692
2447.19	0.00217692
2448.13	0.00217692
2449.06	0.00217692
2450	0.00217692
2450.94	0.00217692
2451.88	0.00217692
2452.81	0.00217692
2453.75	0.00217692
2454.69	0.00217692
2455.63	0.00217692
2456.56	0.00217692
2457.5	0.00178427
2458.44	0.0013484
2459.38	0.00130484
2460.31	0.00130484
2461.25	0.00130484
2462.19	0.00130484
2463.13	0.00130484
2464.06	0.00130484
2465	0.00130484
2465.94	0.00130484
2466.88	0.00130484
2467.81	0.00130484
2468.75	0.00130484
2469.69	0.00130484
2470.63	0.00130484
2471.56	0.00130484
2472.5	0.00113064
2473.44	0.000912977
2474.38	0.000869459
2475.31	0.000869459
2476.25	0.000869459
2477.19	0.000869459
2478.13	0.000869459
2479.06	0.000869459
2480	0.000869459
2480.94	0.000869459
2481.88	0.000869459
2482.81	0.000869459
2483.75	0.000869459
2484.69	0.000869459
2485.63	0.000869459
2486.56	0.000869459
2487.5	0.000869459
2488.44	0.000869459
2489.38	0.000869459
2490.31	0.000869459
2491.25	0.000869459
2492.19	0.000869459
2493.13	0.000521466
2494.06	8.68676e-05
2495	-0
2495.94	-0
2496.88	-0
2497.81	-0
2498.75	-0
2499.69	-0
2500.63	-0
2501.56	-0
2502.5	-0
2503.44	-0
2504.38	-0
2505.31	-0
2506.25	-0.000173683
2507.19	-0.000390689
2508.13	-0.000434077
2509.06	-0.000434077
2510	-0.000434077
2510.94	-0.000434077
2511.88	-0.000434077
2512.81	-0.000434077
2513.75	-0.000434077
2514.69	-0.000434077
2515.63	-0.000434077
2516.56	-0.000434077
2517.5	-0.000434077
2518.44	-0.000434077
2519.38	-0.000434077
2520.31	-0.000434077
2521.25	-0.000434077
2522.19	-0.000434077
2523.13	-0.000434077
2524.06	-0.000434077
2525	-0.000434077
2525.94	-0.000434077
2526.88	-0.000434077
2527.81	-0.000434077
2528.75	-0.000434077
2529.69	-0.000434077
2530.63	-0.000434077
2531.56	-0.000434077
2532.5	-0.000434077
2533.44	-0.000434077
2534.38	-0.000434077
2535.31	-0.000434077
2536.25	-0.000434077
2537.19	-0.000434077
2538.13	-0.000434077
2539.06	-0.000434077
2540	-0.000434077
2540.94	-0.000434077
2541.88	-0.000434077
2542.81	-0.000434077
2543.75	-0.000434077
2544.69	-0.000434077
2545.63	-0.000434077
2546.56	-0.000434077
2547.5	-0.000434077
2548.44	-0.000434077
2549.38	-0.000434077
2550.31	-0.000434077
2551.25	-0.000434077
2552.19	-0.000434077
2553.13	-0.000434077
2554.06	-0.000434077
2555	-0.000434077
2555.94	-0.000434077
2556.88	-0.000434077
2557.81	-0.000434077
2558.75	-0.000434077
2559.69	-0.000434077
2560.63	-0.000434077
2561.56	-0.000434077
2562.5	-0.000434077
2563.44	-0.000434077
2564.38	-0.000434077
2565.31	-0.000434077
2566.25	-0.000434077
2567.19	-0.000434077
2568.13	-0.0003039
2569.06	-8.68502e-05
2570	-0
2570.94	-0
2571.88	-0
2572.81	-0
2573.75	-0
2574.69	-0
2575.63	-0
2576.56	-0
2577.5	-0
2578.44	-0
2579.38	-0
2580.31	-0
2581.25	-0
2582.19	-0
2583.13	-0
2584.06	-0
2585	-0
2585.94	-0
2586.88	-0
2587.81	-0
2588.75	0.000260655
2589.69	0.000695428
2590.63	0.000869459
2591.56	0.000869459
2592.5	0.000869459
2593.44	0.000869459
2594.38	0.000869459
2595.31	0.000869459
2596.25	0.000869459
2597.19	0.000869459
2598.13	0.000869459
2599.06	0.000869459
2600	0.000869459
2600.94	0.000869459
2601.88	0.000869459
2602.81	0.000869459
2603.75	0.00100003
2604.69	0.00121773
2605.63	0.00130484
2606.56	0.00130484
2607.5	0.0015227
2608.44	0.00195874
2609.38	0.00230788
2610.31	0.00252624
2611.25	0.00283213
2612.19	0.00326948
2613.13	0.00348833
2614.06	0.00348833
2615	0.00348833
2615.94	0.00348833
2616.88	0.00361969
2617.81	0.00383871
2618.75	0.00392635
2619.69	0.00392635
2620.63	0.00392635
2621.56	0.00392635
2622.5	0.00392635
2623.44	0.00392635
2624.38	0.00414552
2625.31	0.0045842
2626.25	0.00480371
2627.19	0.00480371
2628.13	0.00489154
2629.06	0.0051112
2630	0.00524306
2630.94	0.00524306
2631.88	0.00524306
2632.81	0.00524306
2633.75	0.00524306
2634.69	0.00524306
2635.63	0.00524306
2636.56	0.00524306
2637.5	0.0054629
2638.44	0.00590291
2639.38	0.00612309
2640.31	0.00612309
2641.25	0.00612309
2642.19	0.00612309
2643.13	0.00612309
2644.06	0.00612309
2645	0.00621119
2645.94	0.00643152
2646.88	0.00656377
2647.81	0.00656377
2648.75	0.00656377
2649.69	0.00656377
2650.63	0.00665196
2651.56	0.00687251
2652.5	0.0070049
2653.44	0.0070049
2654.38	0.0070049
2655.31	0.0070049
2656.25	0.0070049
2657.19	0.0070049
2658.13	0.0070049
2659.06	0.0070049
2660	0.00718148
2660.94	0.00762324
2661.88	0.00788851
2662.81	0.00788851
2663.75	0.00788851
2664.69	0.00788851
2665.63	0.00788851
2666.56	0.00788851
2667.5	0.00788851
2668.44	0.00788851
2669.38	0.00797697
2670.31	0.0081982
2671.25	0.00833099
2672.19	0.00833099
2673.13	0.00833099
2674.06	0.00833099
2675	0.00850811
2675.94	0.00895122
2676.88	0.00921731
2677.81	0.00921731
2678.75	0.00921731
2679.69	0.00921731
2680.63	0.00921731
2681.56	0.00921731
2682.5	0.00930604
2683.44	0.00952795
2684.38	0.00966115
2685.31	0.00966115
2686.25	0.00966115
2687.19	0.00966115
2688.13	0.00966115
2689.06	0.00966115
2690	0.00979438
2690.94	0.0102388
2691.88	0.0105502
2692.81	0.0105502
2693.75	0.0105502
2694.69	0.0105502
2695.63	0.0106392
2696.56	0.0108618
2697.5	0.0109954
2698.44	0.0109954
2699.38	0.011129
2700.31	0.0115748
2701.25	0.0118872
2702.19	0.0118872
2703.13	0.0119764
2704.06	0.0121997
2705	0.0124678
2705.94	0.012915
2706.88	0.0132283
2707.81	0.0132283
2708.75	0.0133178
2709.69	0.013497
2710.63	0.0138555
2711.56	0.0145286
2712.5	0.0150678
2713.44	0.0152927
2714.38	0.0156077
2715.31	0.0160581
2716.25	0.0165541
2717.19	0.0172314
2718.13	0.0177288
2719.06	0.0177288
2720	0.017774
2720.94	0.0180003
2721.88	0.0183173
2722.81	0.0187705
2723.75	0.0191334
2724.69	0.0193604
2725.63	0.0196784
2726.56	0.0201331
2727.5	0.0204972
2728.44	0.0207249
2729.38	0.0209527
2730.31	0.0211806
2731.25	0.0214543
2732.19	0.0219565
2733.13	0.0224593
2734.06	0.0231459
2735	0.0238335
2735.94	0.0245222
2736.88	0.0252581
2737.81	0.0261797
2738.75	0.0269646
2739.69	0.0274269
2740.63	0.0278435
2741.56	0.0280751
2742.5	0.0283068
2743.44	0.0285386
2744.38	0.028817
2745.31	0.0292813
2746.25	0.0296531
2747.19	0.0296531
2748.13	0.0296996
2749.06	0.0299322
2750	0.0301184
2750.94	0.0301184
2751.88	0.0302115
2752.81	0.0306773
2753.75	0.031097
2754.69	0.0313303
2755.63	0.0316105
2756.56	0.0320778
2757.5	0.0324988
2758.44	0.0327329
2759.38	0.033014
2760.31	0.0334828
2761.25	0.0339052
2762.19	0.0341401
2763.13	0.034422
2764.06	0.0348924
2765	0.0352691
2765.94	0.0352691
2766.88	0.0353162
2767.81	0.0355518
2768.75	0.0358347
2769.69	0.0365427
2770.63	0.0371573
2771.56	0.0371573
2772.5	0.0372046
2773.44	0.0374413
2774.38	0.0377254
2775.31	0.0381519
2776.25	0.0385789
2777.19	0.0385789
2778.13	0.0386264
2779.06	0.0388638
2780	0.0391013
2780.94	0.0395768
2781.88	0.0401004
2782.81	0.0408155
2783.75	0.0415317
2784.69	0.0422491
2785.63	0.0429197
2786.56	0.0433994
2787.5	0.0439277
2788.44	0.044649
2789.38	0.0453716
2790.31	0.0460954
2791.25	0.046772
2792.19	0.047256
2793.13	0.0477889
2794.06	0.0485168
2795	0.0491972
2795.94	0.0493918
2796.88	0.0496838
2797.81	0.0504148
2798.75	0.0510982
2799.69	0.0513426
2800.63	0.0516359
2801.56	0.0523703
2802.5	0.0531058
2803.44	0.0535969
2804.38	0.0540885
2805.31	0.054827
2806.25	0.0555667
2807.19	0.0563077
2808.13	0.0570499
2809.06	0.0575455
2810	0.0580416
2810.94	0.0587868
2811.88	0.0595333
2812.81	0.0602811
2813.75	0.0610302
2814.69	0.0617806
2815.63	0.0625323
2816.56	0.0632852
2817.5	0.0640395
2818.44	0.0650473
2819.38	0.0660574
2820.31	0.0673233
2821.25	0.0685421
2822.19	0.0693056
2823.13	0.0700704
2824.06	0.0708366
2825	0.0716041
2825.94	0.072681
2826.88	0.073709
2827.81	0.0752556
2828.75	0.0768078
2829.69	0.0783655
2830.63	0.0799289
2831.56	0.0817599
2832.5	0.0835461
2833.44	0.0853924
2834.38	0.0872467
2835.31	0.0896424
2836.25	0.0920515
2837.19	0.094474
2838.13	0.09691
2839.06	0.0995782
2840	0.102318
2840.94	0.105075
2841.88	0.10785
2842.81	0.111203
2843.75	0.114526
2844.69	0.118273
2845.63	0.121996
2846.56	0.131238
2847.5	0.140682
2848.44	0.146789
2849.38	0.152859
2850.31	0.159706
2851.25	0.166598
2852.19	0.168706
2853.13	0.170632
2854.06	0.17412
2855	0.177701
2855.94	0.180324
2856.88	0.182964
2857.81	0.189431
2858.75	0.196133
2859.69	0.208871
2860.63	0.222428
2861.56	0.23463
2862.5	0.24703
2863.44	0.251579
2864.38	0.255472
2865.31	0.260111
2866.25	0.26488
2867.19	0.274987
2868.13	0.285754
2869.06	0.302771
2870	0.321027
2870.94	0.323672
2871.88	0.325047
2872.81	0.331894
2873.75	0.339419
2874.69	0.344862
2875.63	0.350179
2876.56	0.357733
2877.5	0.365724
2878.44	0.377993
2879.38	0.391046
2880.31	0.395882
2881.25	0.399681
2882.19	0.404504
2883.13	0.409493
2884.06	0.415104
2885	0.420788
2885.94	0.425969
2886.88	0.431212
2887.81	0.436519
2888.75	0.441892
2889.69	0.449894
2890.63	0.458546
2891.56	0.461301
2892.5	0.463189
2893.44	0.465086
2894.38	0.466991
2895.31	0.469416
2896.25	0.471984
2897.19	0.476774
2898.13	0.482013
2899.06	0.485585
2900	0.488919
2900.94	0.491201
2901.88	0.493224
2902.81	0.502794
2903.75	0.513995
2904.69	0.525492
2905.63	0.537153
2906.56	0.530325
2907.5	0.520281
2908.44	0.509761
2909.38	0.499352
2910.31	0.49026
2911.25	0.481749
2912.19	0.472757
2913.13	0.46382
2914.06	0.456056
2915	0.448672
2915.94	0.44636
2916.88	0.445148
2917.81	0.444422
2918.75	0.443818
2919.69	0.442252
2920.63	0.440452
2921.56	0.43866
2922.5	0.436875
2923.44	0.435097
2924.38	0.433327
2925.31	0.432503
2926.25	0.431916
2927.19	0.431798
2928.13	0.431798
2929.06	0.431798
2930	0.431798
2930.94	0.431798
2931.88	0.431798
2932.81	0.432268
2933.75	0.432856
2934.69	0.43427
2935.63	0.436045
2936.56	0.437469
2937.5	0.43866
2938.44	0.440213
2939.38	0.442012
2940.31	0.442493
2941.25	0.442493
2942.19	0.442974
2943.13	0.443577
2944.06	0.445027
2945	0.446845
2945.94	0.450016
2946.88	0.453704
2947.81	0.458296
2948.75	0.463315
2949.69	0.468904
2950.63	0.474696
2951.56	0.4786
2952.5	0.481881
2953.44	0.486649
2954.38	0.492009
2955.31	0.500725
2956.25	0.511167
2957.19	0.521434
2958.13	0.531653
2959.06	0.537303
2960	0.54106
2960.94	0.544242
2961.88	0.547294
2962.81	0.549905
2963.75	0.552222
2964.69	0.553308
2965.63	0.554085
2966.56	0.560825
2967.5	0.570409
2968.44	0.581865
2969.38	0.594483
2970.31	0.599808
2971.25	0.601539
2972.19	0.605023
2973.13	0.609418
2974.06	0.611366
2975	0.612254
2975.94	0.61261
2976.88	0.61261
2977.81	0.612077
2978.75	0.611189
2979.69	0.609595
2980.63	0.607831
2981.56	0.607303
2982.5	0.607303
2983.44	0.607303
2984.38	0.607303
2985.31	0.608359
2986.25	0.610125
2987.19	0.611366
2988.13	0.612254
2989.06	0.614394
2990	0.616903
2990.94	0.619066
2991.88	0.620876
2992.81	0.607127
2993.75	0.585027
2994.69	0.56623
2995.63	0.549597
2996.56	0.534617
2997.5	0.520857
2998.44	0.510042
2999.38	0.501001
3000.31	0.490932
3001.25	0.480303
3002.19	0.470698
3003.13	0.461929
3004.06	0.452471
3005	0.442733
3005.94	0.433209
3006.88	0.424004
3007.81	0.409939
3008.75	0.392974
3009.69	0.369572
3010.63	0.342562
3011.56	0.331055
3012.5	0.330125
3013.44	0.320754
3014.38	0.305483
3015.31	0.28609
3016.25	0.264481
3017.19	0.250573
3018.13	0.24177
3019.06	0.233141
3020	0.224754
3020.94	0.216239
3021.88	0.207819
3022.81	0.199489
3023.75	0.191316
3024.69	0.177897
3025.63	0.160648
3026.56	0.148191
3027.5	0.139482
3028.44	0.130886
3029.38	0.122456
3030.31	0.113961
3031.25	0.105296
3032.19	0.100836
3033.13	0.100015
3034.06	0.0977251
3035	0.0942041
3035.94	0.0856568
3036.88	0.0728864
3037.81	0.0640899
3038.75	0.0586377
3039.69	0.0535969
3040.63	0.0489541
3041.56	0.0447453
3042.5	0.0409109
3043.44	0.0373939
3044.38	0.0340931
3045.31	0.030957
3046.25	0.0279361
3047.19	0.025166
3048.13	0.0226423
3049.06	0.0205882
3050	0.0189973
3050.94	0.0175026
3051.88	0.0161483
3052.81	0.0151578
3053.75	0.0144837
3054.69	0.0132283
3055.63	0.0114856
3056.56	0.0100165
3057.5	0.00890689
3058.44	0.00833099
3059.38	0.00833099
3060.31	0.00802121
3061.25	0.00735813
3062.19	0.00691664
3063.13	0.00669606
3064.06	0.0064756
3065	0.00625524
3065.94	0.00594694
3066.88	0.00550688
3067.81	0.00515515
3068.75	0.00493547
3069.69	0.00480371
3070.63	0.00480371
3071.56	0.0045842
3072.5	0.00418937
3073.44	0.00392635
3074.38	0.00392635
3075.31	0.00383871
3076.25	0.00361969
3077.19	0.00348833
3078.13	0.00348833
3079.06	0.00331324
3080	0.00287584
3080.94	0.00261362
3081.88	0.00261362
3082.81	0.00252624
3083.75	0.00230788
3084.69	0.00217692
3085.63	0.00217692
3086.56	0.00217692
3087.5	0.00217692
3088.44	0.00217692
3089.38	0.00217692
3090.31	0.00217692
3091.25	0.00217692
3092.19	0.00217692
3093.13	0.00217692
3094.06	0.00217692
3095	0.00217692
3095.94	0.00200236
3096.88	0.00156628
3097.81	0.00130484
3098.75	0.00130484
3099.69	0.00130484
3100.63	0.00130484
3101.56	0.00130484
3102.5	0.00130484
3103.44	0.00130484
3104.38	0.00130484
3105.31	0.00130484
3106.25	0.00130484
3107.19	0.00130484
3108.13	0.00130484
3109.06	0.00121773
3110	0.00100003
3110.94	0.000869459
3111.88	0.000869459
3112.81	0.000869459
3113.75	0.000869459
3114.69	0.000869459
3115.63	0.000869459
3116.56	0.000869459
3117.5	0.000869459
3118.44	0.000738929
3119.38	0.000304113
3120.31	-0
3121.25	-0
3122.19	-0
3123.13	-0
3124.06	-0
3125	-0
3125.94	-0
3126.88	-0
3127.81	-0
3128.75	-0
3129.69	-0
3130.63	-0
3131.56	-0
3132.5	-0
3133.44	-0
3134.38	-0
3135.31	-0
3136.25	-0
3137.19	-0
3138.13	-0
3139.06	-0
3140	-0
3140.94	-0
3141.88	-0
3142.81	-0
3143.75	-0
3144.69	-0
3145.63	-0
3146.56	-0
3147.5	-0
3148.44	-0
3149.38	-0
3150.31	-0
3151.25	-0
3152.19	-0
3153.13	-0
3154.06	-0
3155	-0
3155.94	-0
3156.88	-0
3157.81	-0
3158.75	-0
3159.69	-0
3160.63	-0
3161.56	-0
3162.5	-0
3163.44	-4.34273e-05
3164.38	-0.000260499
3165.31	-0.000434077
3166.25	-0.000434077
3167.19	-0.000434077
3168.13	-0.000434077
3169.06	-0.000434077
3170	-0.000434077
3170.94	-0.000390689
3171.88	-0.000173683
3172.81	-0
3173.75	-0
3174.69	-0
3175.63	-0
3176.56	-0
3177.5	-0
3178.44	-0
3179.38	-0
3180.31	-0
3181.25	-0
3182.19	8.68676e-05
3183.13	0.000521466
3184.06	0.000869459
3185	0.000869459
3185.94	0.000869459
3186.88	0.000869459
3187.81	0.000912977
3188.75	0.00113064
3189.69	0.00130484
3190.63	0.00130484
3191.56	0.00130484
3192.5	0.00130484
3193.44	0.00130484
3194.38	0.00130484
3195.31	0.0013484
3196.25	0.00178427
3197.19	0.00217692
3198.13	0.00217692
3199.06	0.00217692
3200	0.00217692
3200.94	0.00222057
3201.88	0.00243888
3202.81	0.00261362
3203.75	0.00261362
3204.69	0.00265731
3205.63	0.00309449
3206.56	0.00348833
3207.5	0.00348833
3208.44	0.00348833
3209.38	0.00348833
3210.31	0.00348833
3211.25	0.00348833
3212.19	0.00348833
3213.13	0.00348833
3214.06	0.00348833
3215	0.00370728
3215.94	0.00392635
3216.88	0.00392635
3217.81	0.00392635
3218.75	0.00392635
3219.69	0.00392635
3220.63	0.00392635
3221.56	0.00392635
3222.5	0.00392635
3223.44	0.00392635
3224.38	0.00392635
3225.31	0.00392635
3226.25	0.00370728
3227.19	0.00348833
3228.13	0.00348833
3229.06	0.00344455
3230	0.00300702
3230.94	0.00261362
3231.88	0.00261362
3232.81	0.00261362
3233.75	0.00261362
3234.69	0.00261362
3235.63	0.00239521
3236.56	0.00217692
3237.5	0.00217692
3238.44	0.00217692
3239.38	0.00174066
3240.31	0.00130484
3241.25	0.00130484
3242.19	0.00130484
3243.13	0.00130484
3244.06	0.00130484
3245	0.0010871
3245.94	0.000869459
3246.88	0.000869459
3247.81	0.000869459
3248.75	0.000434512
3249.69	-0
3250.63	-0
3251.56	-0
3252.5	-0
3253.44	-0
3254.38	-0.000217093
3255.31	-0.000434077
3256.25	-0.000434077
3257.19	-0.000434077
3258.13	-0.000434077
3259.06	-0.000434077
3260	-0.000650954
3260.94	-0.000867722
3261.88	-0.000867722
3262.81	-0.000867722
3263.75	-0.000867722
3264.69	-0.000867722
3265.63	-0.000867722
3266.56	-0.000867722
3267.5	-0.00130093
3268.44	-0.00173371
3269.38	-0.00173371
3270.31	-0.00173371
3271.25	-0.00194994
3272.19	-0.00216606
3273.13	-0.00194994
3274.06	-0.00173371
3275	-0.00194994
3275.94	-0.00216606
3276.88	-0.00216606
3277.81	-0.00216606
3278.75	-0.00216606
3279.69	-0.00216606
3280.63	-0.00216606
3281.56	-0.00216606
3282.5	-0.00216606
3283.44	-0.00216606
3284.38	-0.00216606
3285.31	-0.00216606
3286.25	-0.00216606
3287.19	-0.00216606
3288.13	-0.00216606
3289.06	-0.00216606
3290	-0.00216606
3290.94	-0.00216606
3291.88	-0.00255481
3292.81	-0.00298634
3293.75	-0.00302947
3294.69	-0.00302947
3295.63	-0.00302947
3296.56	-0.00302947
3297.5	-0.00302947
3298.44	-0.00302947
3299.38	-0.00302947
3300.31	-0.00302947
3301.25	-0.00302947
3302.19	-0.00302947
3303.13	-0.00302947
3304.06	-0.00302947
3305	-0.00302947
3305.94	-0.00302947
3306.88	-0.00302947
3307.81	-0.00302947
3308.75	-0.00302947
3309.69	-0.00302947
3310.63	-0.00302947
3311.56	-0.00302947
3312.5	-0.00302947
3313.44	-0.00302947
3314.38	-0.00302947
3315.31	-0.00302947
3316.25	-0.00302947
3317.19	-0.00302947
3318.13	-0.00302947
3319.06	-0.00302947
3320	-0.00302947
3320.94	-0.00302947
3321.88	-0.00302947
3322.81	-0.00302947
3323.75	-0.00302947
3324.69	-0.00302947
3325.63	-0.00302947
3326.56	-0.00302947
3327.5	-0.00302947
3328.44	-0.00302947
3329.38	-0.00302947
3330.31	-0.00302947
3331.25	-0.00302947
3332.19	-0.00302947
3333.13	-0.00302947
3334.06	-0.00302947
3335	-0.00302947
3335.94	-0.00302947
3336.88	-0.00302947
3337.81	-0.00302947
3338.75	-0.00302947
3339.69	-0.00302947
3340.63	-0.00302947
3341.56	-0.00302947
3342.5	-0.00302947
3343.44	-0.00302947
3344.38	-0.00302947
3345.31	-0.00302947
3346.25	-0.00302947
3347.19	-0.00302947
3348.13	-0.00302947
3349.06	-0.00302947
3350	-0.00302947
3350.94	-0.00302947
3351.88	-0.00268431
3352.81	-0.00225248
3353.75	-0.00216606
3354.69	-0.00216606
3355.63	-0.00216606
3356.56	-0.00216606
3357.5	-0.00216606
3358.44	-0.00216606
3359.38	-0.00216606
3360.31	-0.00216606
3361.25	-0.00216606
3362.19	-0.00216606
3363.13	-0.00216606
3364.06	-0.00216606
3365	-0.00216606
3365.94	-0.00216606
3366.88	-0.00216606
3367.81	-0.00216606
3368.75	-0.00216606
3369.69	-0.00216606
3370.63	-0.00216606
3371.56	-0.00216606
3372.5	-0.00169045
3373.44	-0.00104106
3374.38	-0.00134423
3375.31	-0.00199317
3376.25	-0.00216606
3377.19	-0.00216606
3378.13	-0.00216606
3379.06	-0.00216606
3380	-0.0020364
3380.94	-0.00182022
3381.88	-0.00173371
3382.81	-0.00173371
3383.75	-0.00173371
3384.69	-0.00173371
3385.63	-0.00143081
3386.56	-0.00099773
3387.5	-0.000867722
3388.44	-0.000867722
3389.38	-0.00117101
3390.31	-0.00160392
3391.25	-0.00143081
3392.19	-0.00099773
3393.13	-0.000737674
3394.06	-0.000520841
3395	-0.000434077
3395.94	-0.000434077
3396.88	-0.000434077
3397.81	-0.000434077
3398.75	-0.000434077
3399.69	-0.000434077
3400.63	-0.000434077
3401.56	-0.000434077
3402.5	-0.000434077
3403.44	-0.000434077
3404.38	-0.000434077
3405.31	-0.000434077
3406.25	-0.000434077
3407.19	-0.000434077
3408.13	-0.000434077
3409.06	-0.000434077
3410	-0.000434077
3410.94	-0.000434077
3411.88	-0.000564216
3412.81	-0.000781027
3413.75	-0.000867722
3414.69	-0.000867722
3415.63	-0.000867722
3416.56	-0.000867722
3417.5	-0.000867722
3418.44	-0.000867722
3419.38	-0.0011277
3420.31	-0.00156065
3421.25	-0.00173371
3422.19	-0.00173371
3423.13	-0.00173371
3424.06	-0.00173371
3425	-0.00173371
3425.94	-0.00173371
3426.88	-0.00173371
3427.81	-0.00173371
3428.75	-0.00173371
3429.69	-0.00173371
3430.63	-0.00173371
3431.56	-0.00173371
3432.5	-0.00173371
3433.44	-0.00173371
3434.38	-0.0014741
3435.31	-0.00104106
3436.25	-0.000867722
3437.19	-0.000867722
3438.13	-0.000867722
3439.06	-0.000867722
3440	-0.000737674
3440.94	-0.000520841
3441.88	-0.000434077
3442.81	-0.000434077
3443.75	-0.000434077
3444.69	-0.000434077
3445.63	-0.000434077
3446.56	-0.000434077
3447.5	-0.000434077
3448.44	-0.000434077
3449.38	-0.000434077
3450.31	-0.000434077
3451.25	-0.0003039
3452.19	-8.68502e-05
3453.13	-0
3454.06	-0
3455	-0
3455.94	-0
3456.88	-0
3457.81	-0
3458.75	-0
3459.69	-0
3460.63	0.000217202
3461.56	0.000651931
3462.5	0.000869459
3463.44	0.000869459
3464.38	0.000869459
3465.31	0.000869459
3466.25	0.000869459
3467.19	0.000869459
3468.13	0.000651931
3469.06	0.000217202
3470	-0
3470.94	-0
3471.88	-0
3472.81	-0
3473.75	-0
3474.69	-0
3475.63	-0
3476.56	-0
3477.5	-8.68502e-05
3478.44	-0.0003039
3479.38	-0.000434077
3480.31	-0.000434077
3481.25	-0.000434077
3482.19	-0.000434077
3483.13	-0.000434077
3484.06	-0.000434077
3485	-0.000434077
3485.94	-0.000434077
3486.88	-0.000434077
3487.81	-0.000434077
3488.75	-0.000434077
3489.69	-0.000434077
3490.63	-0.000434077
3491.56	-0.000434077
3492.5	-0.000434077
3493.44	-0.000434077
3494.38	-0.000520841
3495.31	-0.000737674
3496.25	-0.000867722
3497.19	-0.000867722
3498.13	-0.000867722
3499.06	-0.000867722
3500	-0.000867722
3500.94	-0.000867722
3501.88	-0.000867722
3502.81	-0.000867722
3503.75	-0.000867722
3504.69	-0.000867722
3505.63	-0.000867722
3506.56	-0.000867722
3507.5	-0.000867722
3508.44	-0.000867722
3509.38	-0.000867722
3510.31	-0.000867722
3511.25	-0.00104106
3512.19	-0.0014741
3513.13	-0.00173371
3514.06	-0.00173371
3515	-0.00173371
3515.94	-0.00173371
3516.88	-0.00173371
3517.81	-0.00173371
3518.75	-0.00173371
3519.69	-0.00173371
3520.63	-0.00173371
3521.56	-0.00173371
3522.5	-0.00173371
3523.44	-0.00173371
3524.38	-0.00156065
3525.31	-0.0011277
3526.25	-0.000867722
3527.19	-0.000867722
3528.13	-0.000867722
3529.06	-0.000867722
3530	-0.000867722
3530.94	-0.000867722
3531.88	-0.000781027
3532.81	-0.000564216
3533.75	-0.000434077
3534.69	-0.000434077
3535.63	-0.000347297
3536.56	-0.000130269
3537.5	-0
3538.44	-0
3539.38	-0
3540.31	-0
3541.25	-0
3542.19	-0
3543.13	-0
3544.06	-0
3545	-0
3545.94	-0
3546.88	-0
3547.81	-0
3548.75	-0
3549.69	-0
3550.63	0.000130308
3551.56	0.00056495
3552.5	0.000869459
3553.44	0.000869459
3554.38	0.000912977
3555.31	0.00113064
3556.25	0.00143554
3557.19	0.00187149
3558.13	0.00217692
3559.06	0.00217692
3560	0.00222057
3560.94	0.00243888
3561.88	0.00274471
3562.81	0.00318198
3563.75	0.00353211
3564.69	0.00375109
3565.63	0.00392635
3566.56	0.00392635
3567.5	0.00392635
3568.44	0.00392635
3569.38	0.00392635
3570.31	0.00392635
3571.25	0.004014
3572.19	0.00445255
3573.13	0.00471589
3574.06	0.00427708
3575	0.00392635
3575.94	0.00392635
3576.88	0.00392635
3577.81	0.00392635
3578.75	0.004014
3579.69	0.00445255
3580.63	0.00480371
3581.56	0.00480371
3582.5	0.00484762
3583.44	0.00506726
3584.38	0.00524306
3585.31	0.00524306
3586.25	0.00524306
3587.19	0.00524306
3588.13	0.00533098
3589.06	0.00577086
3590	0.00616713
3590.94	0.00638744
3591.88	0.00656377
3592.81	0.00656377
3593.75	0.00660786
3594.69	0.00682839
3595.63	0.00709318
3596.56	0.00753485
3597.5	0.00793274
3598.44	0.00815395
3599.38	0.00846382
3600.31	0.0091286
3601.25	0.00974997
3602.19	0.0101943
3603.13	0.0105947
3604.06	0.0108172
3605	0.011129
3605.94	0.0117979
3606.88	0.0124678
3607.81	0.0133626
3608.75	0.0142144
3609.69	0.014888
3610.63	0.0156527
3611.56	0.0167798
3612.5	0.0179098
3613.44	0.0192696
3614.38	0.0205882
3615.31	0.0214999
3616.25	0.022505
3617.19	0.0241089
3618.13	0.0258108
3619.06	0.0278435
3620	0.0299322
3620.94	0.032031
3621.88	0.034187
3622.81	0.036779
3623.75	0.0391964
3624.69	0.0403863
3625.63	0.0417229
3626.56	0.0441199
3627.5	0.0465303
3628.44	0.0491972
3629.38	0.0519785
3630.31	0.0556654
3631.25	0.0593839
3632.19	0.0633857
3633.13	0.0672219
3634.06	0.0695604
3635	0.0718091
3635.94	0.0738634
3636.88	0.0761863
3637.81	0.0808696
3638.75	0.0856568
3639.69	0.0909256
3640.63	0.0963133
3641.56	0.101439
3642.5	0.106682
3643.44	0.111989
3644.38	0.117248
3645.31	0.122111
3646.25	0.127028
3647.19	0.132297
3648.13	0.137332
3649.06	0.138227
3650	0.139063
3650.94	0.139063
3651.88	0.139063
3652.81	0.139363
3653.75	0.139662
3654.69	0.139662
3655.63	0.139662
3656.56	0.139662
3657.5	0.139722
3658.44	0.140261
3659.38	0.141102
3660.31	0.146241
3661.25	0.151318
3662.19	0.154406
3663.13	0.157516
3664.06	0.160585
3665	0.163233
3665.94	0.14685
3666.88	0.131356
3667.81	0.130768
3668.75	0.130123
3669.69	0.127552
3670.63	0.124939
3671.56	0.124649
3672.5	0.12436
3673.44	0.12436
3674.38	0.12436
3675.31	0.124649
3676.25	0.124939
3677.19	0.124939
3678.13	0.124939
3679.06	0.121766
3680	0.118615
3680.94	0.116055
3681.88	0.113566
3682.81	0.111596
3683.75	0.109635
3684.69	0.107683
3685.63	0.105739
3686.56	0.102208
3687.5	0.0986507
3688.44	0.0840728
3689.38	0.0696114
3690.31	0.0651482
3691.25	0.0610802
3692.19	0.055172
3693.13	0.0493431
3694.06	0.0433034
3695	0.0373939
3695.94	0.0337644
3696.88	0.030258
3697.81	0.0277046
3698.75	0.025166
3699.69	0.0230542
3700.63	0.0210438
3701.56	0.0189973
3702.5	0.0169604
3703.44	0.0153377
3704.38	0.0137659
3705.31	0.0128255
3706.25	0.0119764
3707.19	0.0106392
3708.13	0.00935041
3709.06	0.00797697
3710	0.00665196
3710.94	0.00572685
3711.88	0.00489154
3712.81	0.00440868
3713.75	0.00397017
3714.69	0.00392635
3715.63	0.00392635
3716.56	0.00370728
3717.5	0.00348833
3718.44	0.00248256
3719.38	0.00143554
3720.31	0.000738929
3721.25	8.68676e-05
3722.19	-0
3723.13	-0
3724.06	-0
3725	-0
3725.94	-0.000173683
3726.88	-0.000390689
3727.81	-0.000434077
3728.75	-0.000434077
3729.69	-0.000260499
3730.63	-4.34273e-05
3731.56	-0
3732.5	-0
3733.44	-0
3734.38	-0
3735.31	-0
3736.25	-0
3737.19	-0
3738.13	-0
3739.06	-0
3740	-0
3740.94	-0
3741.88	-0
3742.81	-0.000173683
3743.75	-0.000390689
3744.69	-0.000434077
3745.63	-0.000434077
3746.56	-0.000434077
3747.5	-0.000434077
3748.44	-0.000434077
3749.38	-0.000434077
3750.31	-0.000434077
3751.25	-0.000434077
3752.19	-0.000434077
3753.13	-0.000434077
3754.06	-0.000434077
3755	-0.000434077
3755.94	-0.000434077
3756.88	-0.000434077
3757.81	-0.000434077
3758.75	-0.000434077
3759.69	-0.000434077
3760.63	-0.000434077
3761.56	-0.000434077
3762.5	-0.000434077
3763.44	-0.000260499
3764.38	-4.34273e-05
3765.31	-0
3766.25	-0
3767.19	-0
3768.13	-0
3769.06	-0
3770	-0
3770.94	-0
3771.88	-0
3772.81	0.000347575
3773.75	0.000782434
3774.69	0.000869459
3775.63	0.000869459
3776.56	0.000869459
3777.5	0.000869459
3778.44	0.000869459
3779.38	0.000869459
3780.31	0.000869459
3781.25	0.000869459
3782.19	0.000869459
3783.13	0.000869459
3784.06	0.000869459
3785	0.000869459
3785.94	0.000869459
3786.88	0.000869459
3787.81	0.000869459
3788.75	0.000869459
3789.69	0.00056495
3790.63	0.000130308
3791.56	-0
3792.5	-0
3793.44	-0
3794.38	-0
3795.31	-0
3796.25	-0
3797.19	-0
3798.13	-0
3799.06	0.000304113
3800	0.000738929
3800.94	0.00056495
3801.88	0.000130308
3802.81	-0
3803.75	-0
3804.69	-0
3805.63	-0
3806.56	-0
3807.5	-0
